# Lines beginning with `#' are comments and are ignored.
# Blank lines are significant: do not add or remove!
# _database_code_amcsd 0009325
#
# sg, abc, angles.
227b	35.1363398 35.1363398 35.1363398    90 90 90
# ctl, extra.
0.25 0.75 0.875	0.5 1.0
# limits.
--

# rad/asf, n, limits, comb.
# rads: (1.6 1) -> (1.088 1.26).
Zr4+	96	--	--
# zooms.
1.6:0-0
# comb, bound.
#0@c1	0	0	0.14784
#1@e1	0.30624	0	0.25

# 2theta, fwhm, hkl, mult, val.
25.59	0.2	0 1 2	6	61.91
35.17	0.2	1 0 4	6	96.62
37.80	0.2	1 1 0	6	44.59
43.38	0.2	1 1 3	12	99.82
46.21	0.2	2 0 2	6	1.46
52.58	0.2	0 2 4	6	50.05
57.54	0.2	1 1 6	12	100.00
59.78	0.2	2 1 1	12	2.60
61.17	0.2	1 2 2	12	3.30
61.35	0.2	0 1 8	6	7.58
66.56	0.2	2 1 4	12	39.66
68.25	0.2	3 0 0	6	61.31
70.46	0.2	1 2 5	12	1.31
74.36	0.2	2 0 8	6	1.52
76.94	0.2	1 0 10	6	17.73
77.30	0.2	1 1 9	12	9.57
80.75	0.2	2 2 0	6	2.29
84.41	0.2	2 2 3	12	1.91
86.41	0.2	3 1 2	12	1.40
86.57	0.2	1 2 8	12	3.00
89.07	0.2	0 2 10	6	8.37

#spectrum
3	0
3.01999998	0
3.03999996	0
3.05999994	0
3.07999992	0
3.0999999	0
3.11999989	0
3.1400001	0
3.16000009	0
3.18000007	0
3.20000005	0
3.22000003	0
3.24000001	0
3.25999999	0
3.27999997	0
3.29999995	0
3.31999993	0
3.33999991	0
3.3599999	0
3.38000011	0
3.4000001	0
3.42000008	0
3.44000006	0
3.46000004	0
3.48000002	0
3.5	0
3.51999998	0
3.53999996	0
3.55999994	0
3.57999992	0
3.5999999	0
3.61999989	0
3.6400001	0
3.66000009	0
3.68000007	0
3.70000005	0
3.72000003	0
3.74000001	0
3.75999999	0
3.77999997	0
3.79999995	0
3.81999993	0
3.83999991	0
3.8599999	0
3.88000011	0
3.9000001	0
3.92000008	0
3.94000006	0
3.96000004	0
3.98000002	0
4	1846.208
4.01999998	2146.376
4.03999996	2217.8232
4.05999994	2407.8047
4.07999992	2628.6045
4.0999999	3144.5166
4.11999989	3674.8555
4.13999987	4375.9238
4.15999985	5241.04
4.17999983	6047.5078
4.19999981	7467.6279
4.21999979	8573.6729
4.23999977	10456.9111
4.26000023	12803.5869
4.28000021	15702.9316
4.30000019	19317.1436
4.32000017	23572.3994
4.34000015	27226.8564
4.36000013	28060.6445
4.38000011	23328.8662
4.4000001	16642.6055
4.42000008	11376.915
4.44000006	7632.8311
4.46000004	5402.3604
4.48000002	4099.4922
4.5	2997.1924
4.51999998	2322.4062
4.53999996	1617.0625
4.55999994	1014.0703
4.57999992	715.3213
4.5999999	334.6953
4.61999989	159.0527
4.63999987	-63.7529
4.65999985	-265.8848
4.67999983	-288.5127
4.69999981	-676.8184
4.71999979	-459.9902
4.73999977	-720.2246
4.76000023	-773.7207
4.78000021	-638.6875
4.80000019	-941.333
4.82000017	-703.8701
3.84000015	-847.5156
4.86000013	-529.4814
4.88000011	-741.9873
4.9000001	-839.2471
4.92000008	-827.4756
4.94000006	-843.8838
4.96000004	-668.6846
4.98000002	-645.082
5	-690.2832
5.01999998	-618.4854
5.03999996	-530.8838
5.05999994	-533.6709
5.07999992	-463.0313
5.0999999	-300.1436
5.11999989	-337.1855
5.13999987	-339.3232
5.15999985	-216.7236
5.17999983	-190.5381
5.19999981	-380.9199
5.21999979	-101.0127
5.23999977	-318.9541
5.26000023	-259.8721
5.28000021	-155.8975
5.30000019	-109.1445
5.32000017	109.2773
5.34000015	-6.7412
5.36000013	-12.2959
5.38000011	172.5205
5.4000001	262.6221
5.42000008	234.9287
5.44000006	268.3672
5.46000004	350.8701
5.48000002	349.3779
5.5	375.8301
5.51999998	468.1777
5.53999996	447.3789
5.55999994	481.3896
5.57999992	499.1777
5.5999999	542.7139
5.61999989	532.9717
5.63999987	627.9326
5.65999985	877.5811
5.67999983	534.9043
5.69999981	637.8965
5.71999979	556.5547
5.73999977	615.8799
5.76000023	508.875
5.78000021	656.5488
5.80000019	697.9141
5.82000017	784.9834
5.84000015	793.7754
5.86000013	926.3096
5.88000011	759.6104
5.9000001	703.7021
5.92000008	624.6143
5.94000006	682.376
5.96000004	712.0225
5.98000002	677.585
6	706.1025
6.01999998	722.6123
6.03999996	669.1543
6.05999994	612.7695
6.07999992	522.502
6.0999999	675.3936
6.11999989	662.4922
6.13999987	594.8418
6.15999985	610.4912
6.17999983	544.4863
6.19999981	541.8789
6.21999979	507.7158
6.23999977	579.0469
6.26000023	464.9229
6.28000021	483.3965
6.30000019	389.5176
6.32000017	297.3369
6.34000015	333.9062
6.36000013	375.2783
6.38000011	150.5039
6.4000001	424.6338
6.42000008	297.7197
6.44000006	132.8145
6.46000004	128.9687
6.48000002	109.2305
6.5	-66.3447
6.51999998	155.292
6.53999996	-15.8135
6.55999994	110.3926
6.57999992	83.9561
6.5999999	-117.0723
6.61999989	-247.6455
6.63999987	-142.7168
6.65999985	-61.2383
6.67999983	-138.1631
6.69999981	-233.4492
6.71999979	-338.0498
6.73999977	-113.9209
6.76000023	-323.0195
6.78000021	-417.3018
6.80000019	-360.7275
6.82000017	-624.2549
6.84000015	-276.8428
6.86000013	-319.4551
6.88000011	-304.0469
6.9000001	-412.5859
6.92000008	-151.0342
6.94000006	-264.3525
6.96000004	-401.5098
6.98000002	-329.4678
7	-424.1924
7.01999998	-489.6563
7.03999996	-634.8193
7.05999994	-516.6572
7.07999992	-335.1367
7.0999999	-376.2266
7.11999989	-352.9023
7.13999987	-308.1299
7.15999985	-629.8887
7.17999983	-579.1475
7.19999981	-661.8867
7.21999979	-658.0752
7.23999977	-455.6885
7.26000023	-646.7119
7.28000021	-534.1191
7.30000019	-659.8867
7.32000017	-623.9902
7.34000015	-617.4199
7.36000013	-517.1504
7.38000011	-574.1641
7.4000001	-387.4424
7.42000008	-564.9697
7.44000006	-343.7295
7.46000004	-586.708
7.48000002	-332.8867
7.5	-473.2549
7.51999998	-219.7979
7.53999996	-251.5029
7.55999994	-358.3564
7.57999992	-240.3496
7.5999999	-189.4707
7.61999989	-272.708
7.63999987	-167.0537
7.65999985	-71.5
7.67999983	-93.0342
7.69999981	-115.6514
7.71999979	-162.3457
7.73999977	-82.1064
7.76000023	57.0684
7.78000021	144.1855
7.80000019	147.2539
7.82000017	15.2734
7.84000015	75.25
7.86000013	183.1865
7.88000011	273.0859
7.9000001	444.9531
7.92000008	744.7871
7.94000006	708.5928
7.96000004	782.3691
7.98000002	586.1172
8	1257.8389
8.02000046	1443.5322
8.03999996	1512.2012
8.06000042	1732.8379
8.07999992	2260.4492
8.10000038	2746.0283
8.11999989	3127.5752
8.14000034	3590.0879
8.15999985	4068.5635
8.18000031	5041
8.19999981	5694.3945
8.22000027	6975.7422
8.23999977	8369.04
8.26000023	10226.2852
8.27999973	11927.4727
8.30000019	13885.5977
8.31999969	15187.6553
8.34000015	15082.6416
8.35999966	13780.5508
8.38000011	11663.377
8.39999962	9686.1152
8.42000008	8710.7598
8.43999958	7602.3037
8.46000004	7202.7412
8.47999954	6911.0664
8.5	6995.2715
8.52000046	6901.3496
8.53999996	7150.2949
8.56000042	7478.0996
8.57999992	8147.7568
8.60000038	9623.2578
8.61999989	11288.5957
8.64000034	13703.7637
8.65999985	17009.752
8.68000031	20427.5537
8.69999981	22724.1611
8.72000027	21088.5654
8.73999977	17117.7578
8.76000023	13330.7305
8.77999973	9841.4746
8.80000019	8241.9824
8.81999969	6861.2432
8.84000015	6187.25
8.85999966	5772.9941
8.88000011	4684.4648
8.89999962	4407.6543
8.92000008	4135.5537
8.93999958	4133.1533
8.96000004	3396.4443
8.97999954	3117.417
9	3296.0625
9.02000046	3212.373
9.03999996	3139.335
9.06000042	2761.9434
9.07999992	2656.1875
9.10000038	2465.0576
9.11999989	2388.543
9.14000034	2308.6357
9.15999985	2138.3281
9.18000031	2079.6074
9.19999981	1910.4639
9.22000027	2028.8916
9.23999977	2037.8779
9.26000023	1997.417
9.27999973	1767.4941
9.30000019	1598.1045
9.31999969	1603.2354
9.34000015	1536.8799
9.35999966	1578.0273
9.38000011	1423.6699
9.39999962	1496.7949
9.42000008	1145.3955
9.43999958	1107.4619
9.46000004	1186.9854
9.47999954	1208.9551
9.5	1270.3643
9.52000046	631.2031
9.53999996	815.459
9.56000042	756.127
9.57999992	691.1943
9.60000038	857.6572
9.61999989	424.502
9.64000034	551.7227
9.65999985	688.3076
9.68000031	676.251
9.69999981	628.541
9.72000027	607.1719
9.73999977	518.1309
9.76000023	560.4141
9.77999973	904.0098
9.80000019	975.9121
9.81999969	1088.1113
9.84000015	1128.5967
9.85999966	1560.3623
9.88000011	1348.4004
9.89999962	1785.6973
9.92000008	2262.2549
9.93999958	2580.0566
9.96000004	2982.0977
9.97999954	3359.3711
10	3839.8672
10.0200005	4498.5781
10.04	4547.4961
10.0600004	4311.6152
10.0799999	3597.9258
10.1000004	3108.4219
10.1199999	2472.0937
10.1400003	2152.9355
10.1599998	1529.9395
10.1800003	1044.0996
10.1999998	935.4033
10.2200003	810.8525
10.2399998	582.4336
10.2600002	326.1426
10.2799997	239.9687
10.3000002	414.9092
10.3199997	111.957
10.3400002	-93.9004
10.3599997	-87.6621
10.3800001	-406.3369
10.3999996	-527.9346
10.4200001	-280.4561
10.4399996	-537.915
10.46	-286.3115
10.4799995	-618.6543
10.5	-706.9473
10.5200005	-493.1982
10.54	-520.416
10.5600004	-521.6016
10.5799999	-424.7627
10.6000004	-698.9072
10.6199999	-491.04
10.6400003	-565.1621
10.6599998	-653.2852
10.6800003	-663.4111
10.6999998	-746.5479
10.7200003	-544.6982
10.7399998	-407.8701
10.7600002	-412.0645
10.7799997	-316.293
10.8000002	-249.5557
10.8199997	145.1416
10.8400002	492.7939
10.8599997	477.3926
10.8800001	1066.9404
10.8999996	1330.4248
10.9200001	1976.8477
10.9399996	2426.1992
10.96	2372.4775
10.9799995	1891.6777
11	1590.7949
11.0200005	926.8281
11.04	363.7666
11.0600004	263.6113
11.0799999	24.3564
11.1000004	-348.0029
11.1199999	-520.4688
11.1400003	-467.0459
11.1599998	-551.7393
11.1800003	-686.5508
11.1999998	-849.4863
11.2200003	-819.5479
11.2399998	-859.7412
11.2600002	-596.0664
11.2799997	-786.5293
11.3000002	-828.1328
11.3199997	-637.8809
11.3400002	-718.7754
11.3599997	-660.8213
11.3800001	-627.0215
11.3999996	-916.3789
11.4200001	-880.8936
11.4399996	-924.5762
11.46	-920.4199
11.4799995	-884.4365
11.5	-1054.623
11.5200005	-933.9824
11.54	-920.5234
11.5600004	-865.2412
11.5799999	-838.1436
11.6000004	-763.2305
11.6199999	-647.5049
11.6400003	-755.9697
11.6599998	-721.6289
11.6800003	-820.4795
11.6999998	-708.5313
11.7200003	-861.7813
11.7399998	-686.2334
11.7600002	-645.8887
11.7799997	-716.751
11.8000002	-663.8213
11.8199997	-745.1035
11.8400002	-706.59277
11.8599997	-709.30176
11.8800001	-726.22363
11.8999996	-472.36426
11.9200001	-595.72363
11.9399996	-582.30664
11.96	-627.11035
11.9799995	-619.14063
12	-577.39551
12.0200005	-665.87695
12.04	-543.59082
12.0600004	-413.53223
12.0799999	-570.70898
12.1000004	-676.11914
12.1199999	-594.76367
12.1400003	-530.64355
12.1599998	-515.76172
12.1800003	-418.11719
12.1999998	-555.71387
12.2200003	-428.55078
12.2399998	-344.63086
12.2600002	-492.9541
12.2799997	-358.52246
12.3000002	-419.33301
12.3199997	-267.39258
12.3400002	-211.69727
12.3599997	-243.25195
12.3800001	-326.05273
12.3999996	-153.10547
12.4200001	-212.4082
12.4399996	-84.96191
12.46	-209.76563
12.4799995	-185.82324
12.5	-295.13379
12.5200005	-148.69727
12.54	-77.5166
12.5600004	-226.58789
12.5799999	10.08301
12.6000004	-191.50195
12.6199999	73.65723
12.6400003	-140.43848
12.6599998	84.20508
12.6800003	154.59473
12.6999998	210.72656
12.7200003	148.60059
12.7399998	185.21387
12.7600002	139.57129
12.7799997	172.66992
12.8000002	350.50781
12.8199997	233.08887
12.8400002	333.41016
12.8599997	534.47168
12.8800001	551.27539
12.8999996	764.81738
12.9200001	655.10156
12.9399996	803.12695
12.96	963.89258
12.9799995	1058.39746
13	1479.64648
13.0200005	1764.63477
13.04	1866.36426
13.0600004	1867.83496
13.0799999	1725.04687
13.1000004	1714.00098
13.1199999	1274.6958
13.1400003	1043.13379
13.1599998	910.31348
13.1800003	867.23535
13.1999998	836.90088
13.2200003	740.30957
13.2399998	655.46045
13.2600002	666.35791
13.2799997	532.99805
13.3000002	459.38232
13.3199997	506.51221
13.3400002	659.38818
13.3599997	472.00928
13.3800001	443.37842
13.3999996	641.49219
13.4200001	368.35498
13.4399996	335.96533
13.46	393.32422
13.4799995	438.43213
13.5	609.28955
13.5200005	437.89795
13.54	558.25586
13.5600004	473.3667
13.5799999	636.22852
13.6000004	515.84326
13.6199999	453.21191
13.6400003	516.33398
13.6599998	543.21045
13.6800003	500.84326
13.6999998	596.23145
13.7200003	371.37793
13.7399998	570.28027
13.7600002	527.94189
13.7799997	786.36279
13.8000002	584.54346
13.8199997	697.48535
13.8400002	678.18799
13.8599997	574.65283
13.8800001	459.88232
13.8999996	620.87451
13.9200001	562.63135
13.9399996	787.1543
13.96	799.44482
13.9799995	735.50146
14	792.32715
14.0200005	754.92236
14.04	911.28711
14.0600004	815.42334
14.0799999	792.33105
14.1000004	852.01221
14.1199999	1028.46777
14.1400003	1005.69727
14.1599998	1137.70361
14.1800003	1318.48633
14.1999998	1380.0459
14.2200003	1325.38477
14.2399998	1193.50342
14.2600002	1152.40283
14.2799997	1173.08447
14.3000002	992.54834
14.3199997	1021.79639
14.3400002	965.8291
14.3599997	830.64697
14.3800001	694.25244
14.3999996	724.646
14.4200001	741.82812
14.4399996	737.80078
14.46	781.56396
14.4799995	566.11963
14.5	592.46826
14.5200005	781.61182
14.54	833.55029
14.5600004	727.28564
14.5799999	636.81836
14.6000004	479.1499
14.6199999	564.28076
14.6400003	671.21338
14.6599998	629.94727
14.6800003	620.48486
14.6999998	746.82617
14.7200003	849.97314
14.7399998	709.92627
14.7600002	749.6875
14.7799997	810.25732
14.8000002	905.63672
14.8199997	817.82764
14.8400002	943.83057
14.8599997	962.64648
14.8800001	1028.27734
14.8999996	856.72363
14.9200001	727.98682
14.9399996	721.06738
14.96	671.96777
14.9799995	687.6875
15	673.22949
15.0200005	694.59326
15.04	725.78125
15.0600004	676.79395
15.0799999	654.63281
15.1000004	688.29834
15.1199999	560.79248
15.1400003	739.11621
15.1599998	679.271
15.1800003	639.25732
15.1999998	570.07666
15.2200003	562.72998
15.2399998	449.21875
15.2600002	451.54443
15.2799997	580.70752
15.3000002	614.70947
15.3199997	407.55127
15.3400002	599.23486
15.3599997	373.76074
15.3800001	510.12988
15.3999996	431.34375
15.4200001	437.40381
15.4399996	453.31104
15.46	473.06543
15.4799995	488.67041
15.5	313.12549
15.5200005	505.43213
15.54	388.59229
15.5600004	516.60645
15.5799999	524.47607
15.6000004	571.20166
15.6199999	319.78467
15.6400003	437.22656
15.6599998	657.52881
15.6800003	401.69141
15.6999998	554.7168
15.7200003	476.60498
15.7399998	263.3584
15.7600002	520.97656
15.7799997	510.46289
15.8000002	489.81641
15.8199997	419.03857
15.8400002	431.13135
15.8599997	432.09619
15.8800001	433.93262
15.8999996	401.64355
15.9200001	516.22852
15.9399996	629.69043
15.96	425.02881
15.9799995	300.24463
16	428.34082
16.0200005	225.31787
16.0400009	309.17578
16.0599995	259.91748
16.0799999	44.54199
16.1000004	468.05127
16.1200008	351.44727
16.1399994	158.73096
16.1599998	542.90186
16.1800003	218.96191
16.2000008	226.91309
16.2199993	124.75684
16.2399998	191.49072
16.2600002	165.12012
16.2800007	197.64453
16.2999992	131.06494
16.3199997	252.38232
16.3400002	284.59668
16.3600006	107.71191
16.3799992	175.72705
16.3999996	269.64307
16.4200001	349.46143
16.4400005	347.18311
16.4599991	364.80957
16.4799995	273.3418
16.5	372.78027
16.5200005	316.12744
16.5400009	398.38281
16.5599995	358.54834
16.5799999	307.62451
16.6000004	279.61182
16.6200008	45.51221
16.6399994	253.32764
16.6599998	241.05762
16.6800003	272.70312
16.7000008	234.26514
16.7199993	246.74658
16.7399998	174.146
16.7600002	179.46582
16.7800007	9.70605
16.7999992	114.87012
16.8199997	92.95557
16.8400002	-87.03467
16.8600006	2.90039
16.8799992	112.76221
16.8999996	208.55029
16.9200001	112.26514
16.9400005	83.91113
16.9599991	209.48682
16.9799995	3.99219
17	210.42871
17.0200005	131.79883
17.0400009	56.10205
17.0599995	228.34326
17.0799999	-73.48242
17.1000004	22.62842
17.1200008	82.67578
17.1399994	7.66504
17.1599998	-68.40869
17.1800003	102.45703
17.2000008	12.26514
17.2199993	-57.98291
17.2399998	-64.29053
17.2600002	61.3457
17.2800007	-44.07275
17.2999992	-57.54297
17.3199997	-193.06836
17.3400002	-45.64844
17.3600006	152.72168
17.3799992	165.04395
17.3999996	131.3125
17.4200001	-58.4668
17.4400005	-29.29199
17.4599991	30.83301
17.4799995	-18.08789
17.5	162.94727
17.5200005	-17.06348
17.5400009	-91.11816
17.5599995	44.78613
17.5799999	41.64551
17.6000004	58.46484
17.6200008	183.24414
17.6399994	-21.01563
17.6599998	-76.31641
17.6800003	-72.65234
17.7000008	69.97363
17.7199993	175.56348
17.7399998	289.11719
17.7600002	120.63574
17.7800007	149.12109
17.7999992	254.57422
17.8199997	181.99414
17.8400002	193.38184
17.8600006	318.74023
17.8799992	231.06836
17.8999996	70.36719
17.9200001	341.63574
17.9400005	447.87793
17.9599991	485.0957
17.9799995	448.28418
18	324.44824
18.0200005	603.58594
18.0400009	467.70215
18.0599995	415.79492
18.0799999	294.86523
18.1000004	369.91211
18.1200008	386.93945
18.1399994	406.94824
18.1599998	376.93457
18.1800003	269.90234
18.2000008	105.85254
18.2199993	104.78809
18.2399998	-76.29688
18.2600002	129.60352
18.2800007	138.48828
18.2999992	223.36035
18.3199997	-0.78418
18.3400002	187.05957
18.3600006	224.89062
18.3799992	319.70996
18.3999996	221.5166
18.4200001	254.3125
18.4400005	40.09961
18.4599991	-72.12012
18.4799995	88.64844
18.5	156.40918
18.5200005	-52.83594
18.5400009	61.90918
18.5599995	-110.34668
18.5799999	116.38867
18.6000004	-81.88086
18.6200008	64.8457
18.6399994	102.57129
18.6599998	124.29102
18.6800003	197.00879
18.7000008	198.72559
18.7199993	143.44141
18.7399998	150.15625
18.7600002	206.87207
18.7800007	160.58691
18.7999992	223.30566
18.8199997	324.02344
18.8400002	156.74512
18.8600006	109.46973
18.8799992	231.19922
18.8999996	-46.06836
18.9200001	242.66895
18.9400005	-159.58984
18.9599991	185.16016
18.9799995	140.91406
19	198.67578
19.0200005	150.44531
19.0400009	24.22266
19.0599995	129.00977
19.0799999	158.80371
19.1000004	364.6084
19.1200008	239.42383
19.1399994	147.25098
19.1599998	443.08789
19.1800003	221.9375
19.2000008	389.79883
19.2199993	515.67187
19.2399998	672.55859
19.2600002	778.45996
19.2800007	1023.37598
19.2999992	1417.30664
19.3199997	1613.25195
19.3400002	1668.21289
19.3600006	1898.19141
19.3799992	1806.18652
19.3999996	1470.19727
19.4200001	1306.22754
19.4400005	988.27441
19.4599991	855.34277
19.4799995	721.42676
19.5	556.53223
19.5200005	405.65723
19.5400009	399.80078
19.5599995	413.9707
19.5799999	281.15625
19.6000004	368.36719
19.6200008	240.59961
19.6399994	306.85449
19.6599998	354.13281
19.6800003	238.43359
19.7000008	159.75977
19.7199993	460.11035
19.7399998	267.4854
19.7600002	307.8857
19.7800007	134.3115
19.7999992	87.7637
19.8199997	79.2422
19.8400002	216.748
19.8600006	296.2803
19.8799992	241.8418
19.8999996	361.4307
19.9200001	399.0479
19.9400005	361.6943
19.9599991	511.3701
19.9799995	344.0752
20	393.8105
20.0200005	394.5752
20.0400009	686.3721
20.0599995	521.2021
20.0799999	610.0615
20.1000004	555.9521
20.1200008	835.875
20.1399994	653.833
20.1599998	874.8232
20.1800003	700.8457
20.2000008	829.9014
20.2199993	743.9932
20.2399998	680.1172
20.2600002	388.2773
20.2800007	555.4727
20.2999992	641.7031
20.3199997	402.9697
20.3400002	496.2725
20.3600006	451.6104
20.3799992	360.9873
20.3999996	356.4004
20.4200001	360.8496
20.4400005	494.3379
20.4599991	438.8643
20.4799995	118.4287
20.5	467.0312
20.5200005	430.6729
20.5400009	751.3545
20.5599995	603.0762
20.5799999	768.8369
20.6000004	827.6377
20.6200008	1081.4785
20.6399994	1112.3633
20.6599998	872.2852
20.6800003	1109.249
20.7000008	1399.2568
20.7199993	1810.3057
20.7399998	1808.3965
20.7600002	1922.5283
20.7800007	2255.7041
20.7999992	2103.9248
20.8199997	1918.1855
20.8400002	1633.4922
20.8600006	1603.8418
20.8799992	1202.2373
20.8999996	948.6738
20.9200001	804.1562
20.9400005	785.6836
20.9599991	727.2578
20.9799995	565.875
21	420.5391
21.0200005	413.248
21.0400009	367.0039
21.0599995	319.8066
21.0799999	281.6562
21.1000004	255.5508
21.1200008	347.4932
21.1399994	227.4834
21.1599998	246.5205
21.1800003	380.6064
21.2000008	294.7393
21.2199993	231.9219
21.2399998	380.1514
21.2600002	314.4297
21.2800007	229.7559
21.2999992	579.1338
21.3199997	555.5605
21.3400002	608.0342
21.3600006	534.5596
21.3799992	595.1357
21.3999996	936.7607
21.4200001	497.4355
21.4400005	580.1621
21.4599991	714.9385
21.4799995	432.7666
21.5	352.6445
21.5200005	308.5742
21.5400009	360.5557
21.5599995	196.5889
21.5799999	278.6738
21.6000004	174.8115
21.6200008	208
21.6399994	348.2441
21.6599998	123.5371
21.6800003	228.8838
21.7000008	272.2842
21.7199993	77.7383
21.7399998	143.2441
21.7600002	244.8037
21.7800007	492.417
21.7999992	363.0859
21.8199997	502.8076
21.8400002	450.582
21.8600006	434.4111
21.8799992	558.2969
21.8999996	457.2354
21.9200001	259.2275
21.9400005	163.2764
21.9599991	286.3809
21.9799995	293.5381
22	111.752
22.0200005	192.0215
22.0400009	126.3457
22.0599995	88.7285
22.0799999	-67.8359
22.1000004	96.6562
22.1200008	117.2061
22.1399994	165.8115
22.1599998	-43.5264
22.1800003	-103.8096
22.2000008	-98.0352
22.2199993	-6.2021
22.2399998	-66.3145
22.2600002	-6.3691
22.2800007	-230.3662
22.2999992	56.6953
22.3199997	-139.1875
22.3400002	-19.0127
22.3600006	-39.7803
22.3799992	-12.4883
22.3999996	-228.1396
22.4200001	-50.7334
22.4400005	-92.2686
22.4599991	104.2549
22.4799995	117.835
22.5	-79.5254
22.5200005	156.1719
22.5400009	2.9287
22.5599995	36.7451
22.5799999	23.6191
22.6000004	114.5527
22.6200008	53.5439
22.6399994	53.5967
22.6599998	-101.293
22.6800003	133.876
22.7000008	-67.8945
22.7199993	-15.6055
22.7399998	-40.2578
22.7600002	53.1494
22.7800007	-17.3818
22.7999992	15.1455
22.8199997	160.7324
22.8400002	12.3799
22.8600006	43.0869
22.8799992	-138.1445
22.8999996	6.6826
22.9200001	-88.4307
22.9400005	59.5176
22.9599991	60.5264
22.9799995	122.5957
23	220.7246
23.0200005	182.9141
23.0400009	-3.835
23.0599995	82.4766
23.0799999	17.8486
23.1000004	1.2822
23.1200008	6.7754
23.1399994	-73.6699
23.1599998	-112.0537
23.1800003	-304.377
23.2000008	-258.6396
23.2199993	-368.8398
23.2399998	-417.9805
23.2600002	-576.0586
23.2800007	-326.0762
23.2999992	-345.0313
23.3199997	-385.9258
23.3400002	-306.7588
23.3600006	-430.5313
23.3799992	-321.2402
23.3999996	-351.8896
23.4200001	-383.4766
23.4400005	-256.002
23.4599991	-399.4648
23.4799995	-533.8672
23.5	-235.208
23.5200005	-320.4873
23.5400009	-236.7041
23.5599995	-397.8584
23.5799999	-384.9512
23.6000004	-561.9834
23.6200008	-383.9531
23.6399994	-407.8604
23.6599998	-373.7061
23.6800003	-180.4902
23.7000008	-316.2119
23.7199993	-261.8721
23.7399998	-163.4697
23.7600002	-398.0059
23.7800007	-201.4805
23.7999992	-343.8916
23.8199997	-405.2422
23.8400002	-272.5303
23.8600006	-332.7559
23.8799992	-292.9199
23.8999996	-174.0215
23.9200001	-326.0615
23.9400005	-264.0391
23.9599991	-87.9541
23.9799995	-138.8076
24	-320.5996
24.0200005	-34.3291
24.0400009	-245.9961
24.0599995	-93.6016
24.0799999	-199.1455
24.1000004	-221.627
24.1200008	-78.0469
24.1399994	-148.4033
24.1599998	-94.6992
24.1800003	-104.9326
24.2000008	-285.1045
24.2199993	-226.2129
24.2399998	-195.2607
24.2600002	-269.2461
24.2800007	-357.1699
24.2999992	-341.0322
24.3199997	-406.832
24.3400002	-516.5703
24.3600006	-458.2471
24.3799992	-345.8613
24.3999996	-366.415
24.4200001	-329.9063
24.4400005	-310.3359
24.4599991	-473.7031
24.4799995	-630.0098
24.5	-491.2539
24.5200005	-504.4375
24.5400009	-515.5586
24.5599995	-335.6191
24.5799999	-465.6182
24.6000004	-495.5547
24.6200008	-375.4307
24.6399994	-522.2461
24.6599998	-288.999
24.6800003	-420.6914
24.7000008	-255.3223
24.7199993	-301.8916
24.7399998	-342.4004
24.7600002	-488.8477
24.7800007	-443.2344
24.7999992	-494.5596
24.8199997	-351.8252
24.8400002	-310.0293
24.8600006	-352.1719
24.8799992	-122.2549
24.8999996	-78.2764
24.9200001	-254.2373
24.9400005	-256.1377
24.9599991	-146.9785
24.9799995	4.2422
25	-22.4775
25.0200005	24.8633
25.0400009	170.2646
25.0599995	272.7256
25.0799999	477.2471
25.1000004	537.8291
25.1200008	687.4697
25.1399994	854.1709
25.1599998	759.9326
25.1800003	640.7529
25.2000008	760.6338
25.2199993	390.5732
25.2399998	411.5723
25.2600002	325.6318
25.2800007	63.75
25.2999992	183.9268
25.3199997	-6.8359
25.3400002	-219.541
25.3600006	-61.1855
25.3799992	-383.7725
25.3999996	-196.2998
25.4200001	64.2314
25.4400005	76.8213
25.4599991	-268.5313
25.4799995	-73.8242
25.5	-313.0586
25.5200005	-4.2354
25.5400009	-158.3545
25.5599995	-96.415
25.5799999	-202.417
25.6000004	-199.3613
25.6200008	-107.248
25.6399994	-202.0771
25.6599998	192.1514
25.6800003	50.4365
25.7000008	187.7803
25.7199993	-4.8193
25.7399998	358.6387
25.7600002	196.1533
25.7800007	229.7246
25.7999992	305.3525
25.8199997	193.0381
25.8400002	78.7793
25.8600006	179.5781
25.8799992	219.4326
25.8999996	53.3428
25.9200001	374.3096
25.9400005	207.332
25.9599991	209.4111
25.9799995	209.5449
26	310.7354
26.0200005	213.9805
26.0400009	425.2812
26.0599995	422.6377
26.0799999	598.0488
26.1000004	586.5146
26.1200008	645.0361
26.1399994	772.6113
26.1599998	603.2422
26.1800003	603.9268
26.2000008	781.666
26.2199993	860.459
26.2399998	894.3057
26.2600002	691.207
26.2800007	834.1621
26.2999992	724.1709
26.3199997	711.2324
26.3400002	786.3486
26.3600006	447.5166
26.3799992	448.7383
26.3999996	572.0127
26.4200001	442.3398
26.4400005	314.7197
26.4599991	203.1523
26.4799995	458.6367
26.5	363.1738
26.5200005	257.7627
26.5400009	583.4033
26.5599995	309.0947
26.5799999	183.8389
26.6000004	109.6348
26.6200008	154.4805
26.6399994	21.3779
26.6599998	138.3262
26.6800003	173.3252
26.7000008	192.375
26.7199993	104.4746
26.7399998	191.625
26.7600002	89.8252
26.7800007	268.0752
26.7999992	110.375
26.8199997	292.7246
26.8400002	338.123
26.8600006	300.5713
26.8799992	409.0684
26.8999996	601.6133
26.9200001	669.209
26.9400005	766.8516
26.9599991	718.543
26.9799995	861.2822
27	846.0703
27.0200005	1073.9053
27.0400009	1054.7891
27.0599995	1025.7187
27.0799999	1353.6973
27.1000004	1779.7217
27.1200008	1513.793
27.1399994	1994.9111
27.1599998	1916.0762
27.1800003	1898.2871
27.2000008	1949.5439
27.2199993	2384.8467
27.2399998	2240.1953
27.2600002	2162.5908
27.2800007	2003.0303
27.2999992	1932.5146
27.3199997	1781.0449
27.3400002	1668.6201
27.3600006	1598.2383
27.3799992	1172.9023
27.3999996	1281.6104
27.4200001	1027.3623
27.4400005	729.1572
27.4599991	744.9961
27.4799995	667.8789
27.5	725.8047
27.5200005	478.7734
27.5400009	594.7842
27.5599995	510.8379
27.5799999	536.9336
27.6000004	646.0713
27.6200008	488.252
27.6399994	466.4736
27.6599998	526.7373
27.6800003	487.042
27.7000008	395.3877
27.7199993	299.7734
27.7399998	440.2002
27.7600002	354.668
27.7800007	294.1758
27.7999992	397.7227
27.8199997	542.3105
27.8400002	548.9375
27.8600006	439.6045
27.8799992	885.3086
27.8999996	698.0527
27.9200001	766.8359
27.9400005	894.6572
27.9599991	832.5156
27.9799995	962.4141
28	1141.3496
28.0200005	1356.3223
28.0400009	1666.333
28.0599995	1802.3789
28.0799999	2023.4629
28.1000004	1797.583
28.1200008	2008.7402
28.1399994	1675.9336
28.1599998	1472.1621
28.1800003	1291.4268
28.2000008	1285.7266
28.2199993	867.0615
28.2399998	782.4316
28.2600002	867.8369
28.2800007	804.2764
28.2999992	643.75
28.3199997	669.2568
28.3400002	592.7988
28.3600006	575.375
28.3799992	663.9814
28.3999996	586.624
28.4200001	513.2979
28.4400005	473.0049
28.4599991	236.7432
28.4799995	544.5146
28.5	485.3193
28.5200005	590.1533
28.5400009	471.0195
28.5599995	398.915
28.5799999	237.8447
28.6000004	593.8027
28.6200008	600.792
28.6399994	578.8096
28.6599998	555.8594
28.6800003	377.9385
28.7000008	622.0479
28.7199993	597.1826
28.7399998	711.3496
28.7600002	695.5449
28.7800007	1092.7676
28.7999992	850.0186
28.8199997	802.2979
28.8400002	1224.6045
28.8600006	1210.9385
28.8799992	1393.2998
28.8999996	1554.6885
28.9200001	1575.1016
28.9400005	1805.5439
28.9599991	1913.0098
28.9799995	2099.5029
29	2245.0225
29.0200005	2221.5654
29.0400009	2106.1348
29.0599995	2192.7275
29.0799999	2217.3467
29.1000004	1967.9893
29.1200008	1925.6553
29.1399994	1829.3447
29.1599998	1588.0596
29.1800003	1563.7969
29.2000008	1371.5576
29.2199993	1497.3398
29.2399998	1157.1445
29.2600002	1092.9736
29.2800007	1244.8223
29.2999992	1116.6934
29.3199997	1113.5859
29.3400002	869.502
29.3600006	945.4355
29.3799992	1034.3896
29.3999996	1225.3672
29.4200001	1237.3623
29.4400005	1101.3799
29.4599991	1505.4131
29.4799995	1551.4678
29.5	1943.5439
29.5200005	1763.6357
29.5400009	2243.748
29.5599995	1921.876
29.5799999	1909.0244
29.6000004	1692.1904
29.6200008	1843.373
29.6399994	1440.5732
29.6599998	1283.791
29.6800003	993.0244
29.7000008	788.2744
29.7199993	813.543
29.7399998	593.8242
29.7600002	706.1221
29.7800007	588.4365
29.7999992	345.7656
29.8199997	579.1084
29.8400002	471.4687
29.8600006	401.8408
29.8799992	741.2266
29.8999996	629.6279
29.9200001	490.0439
29.9400005	445.4717
29.9599991	641.9111
29.9799995	512.3643
30	525.8311
30.0200005	313.3096
30.0400009	396.7988
30.0599995	511.3008
30.0799999	491.8164
30.1000004	46.3408
30.1200008	368.876
30.1399994	442.4219
30.1599998	429.9814
30.1800003	299.5488
30.2000008	53.125
30.2199993	236.7119
30.2399998	295.3066
30.2600002	169.9131
30.2800007	118.5283
30.2999992	50.1514
30.3199997	-32.2168
30.3400002	-36.5781
30.3600006	17.0703
30.3799992	98.7246
30.3999996	-6.6113
30.4200001	160.0576
30.4400005	-57.2656
30.4599991	18.418
30.4799995	159.1084
30.5	-52.1963
30.5200005	353.5049
30.5400009	174.2139
30.5599995	135.9258
30.5799999	-61.3564
30.6000004	-125.6338
30.6200008	92.0937
30.6399994	37.8242
30.6599998	5.5596
30.6800003	-28.7002
30.7000008	62.0439
30.7199993	157.79
30.7399998	220.54
30.7600002	212.293
30.7800007	411.0488
30.7999992	8.8047
30.8199997	98.5664
30.8400002	115.3291
30.8600006	16.0937
30.8799992	63.8584
30.8999996	-200.375
30.9200001	-219.6084
30.9400005	-320.8389
30.9599991	-165.0723
30.9799995	-98.3027
31	-180.5332
31.0200005	-207.7646
31.0400009	-208.9961
31.0599995	-137.2285
31.0799999	-143.4619
31.1000004	-111.6982
31.1200008	-29.9336
31.1399994	-76.1719
31.1599998	-234.4102
31.1800003	-159.6514
31.2000008	38.1055
31.2199993	107.8594
31.2399998	28.6104
31.2600002	-72.6416
31.2800007	-214.8955
31.2999992	-54.1543
31.3199997	55.584
31.3400002	17.3193
31.3600006	-37.9512
31.3799992	-179.2256
31.3999996	-33.5039
31.4200001	-181.7861
31.4400005	-55.0732
31.4599991	-35.3672
31.4799995	14.334
31.5	22.0312
31.5200005	-125.2783
31.5400009	-131.5938
31.5599995	-19.917
31.5799999	-129.2441
31.6000004	-96.5791
31.6200008	-176.9199
31.6399994	5.7295
31.6599998	-103.625
31.6800003	-32.9883
31.7000008	-94.3584
31.7199993	-225.7373
31.7399998	-198.124
31.7600002	-173.5176
31.7800007	-25.91992
31.7999992	-113.33105
31.8199997	-96.75293
31.8400002	-88.18164
31.8600006	-156.61914
31.8799992	-187.06641
31.8999996	-88.52441
31.9200001	-66.99023
31.9400005	-104.4668
31.9599991	98.04687
31.9799995	-116.45117
32	-125.95703
32.0200005	-153.47461
32.0400009	-121.00098
32.0600014	104.45703
32.0800018	162.90723
32.0999985	138.34473
32.1199989	-113.22949
32.1399994	163.18652
32.1599998	13.5918
32.1800003	75.98242
32.2000008	103.3623
32.2200012	72.72949
32.2400017	-160.91504
32.2599983	-34.57422
32.2799988	-46.24316
32.2999992	-71.92871
32.3199997	-43.625
32.3400002	61.66504
32.3600006	7.94336
32.3800011	56.20703
32.4000015	-136.54395
32.4199982	-219.30762
32.4399986	-76.08594
32.4599991	5.12305
32.4799995	-26.68262
32.5	82.49707
32.5200005	13.66211
32.5400009	-69.18848
32.5600014	114.94824
32.5800018	-2.93262
32.5999985	-17.82813
32.6199989	6.2627
32.6399994	-126.66113
32.6599998	29.39941
32.6800003	21.44434
32.7000008	-44.52734
32.7200012	-224.51465
32.7400017	13.48242
32.7599983	-77.53809
32.7799988	-56.57227
32.7999992	-138.625
32.8199997	-33.69238
32.8400002	-26.77637
32.8600006	-76.87793
32.8800011	-203.99609
32.9000015	177.87012
32.9199982	150.71777
32.9399986	106.54785
32.9599991	18.36328
32.9799995	-13.83984
33	77.94043
33.0200005	159.7041
33.0400009	49.4502
33.0600014	123.17578
33.0800018	219.88477
33.0999985	230.57617
33.1199989	332.25098
33.1399994	282.9082
33.1599998	329.5459
33.1800003	388.16406
33.2000008	467.76758
33.2200012	430.35059
33.2400017	277.91602
33.2599983	306.46289
33.2799988	324.99023
33.2999992	427.50098
33.3199997	337.99219
33.3400002	316.46484
33.3600006	64.91895
33.3800011	305.35352
33.4000015	253.76855
33.4199982	75.16699
33.4399986	86.54395
33.4599991	72.90234
33.4799995	-95.75781
33.5	-118.43555
33.5200005	126.86621
33.5400009	-30.85254
33.5600014	-121.58789
33.5800018	82.65625
33.5999985	-35.12207
33.6199989	-94.91699
33.6399994	13.26953
33.6599998	9.43555
33.6800003	20.58105
33.7000008	-26.29199
33.7200012	-190.18359
33.7400017	-109.0957
33.7599983	64.9707
33.7799988	-60.98145
33.7999992	89.04785
33.8199997	-25.94238
33.8400002	73.0459
33.8600006	40.01562
33.8800011	52.96582
33.9000015	49.89551
33.9199982	85.80469
33.9399986	268.69531
33.9599991	142.56641
33.9799995	295.41699
34	125.24609
34.0200005	234.05762
34.0400009	178.84863
34.0600014	252.62207
34.0800018	504.37207
34.0999985	411.10352
34.1199989	262.81348
34.1399994	346.50586
34.1599998	370.17773
34.1800003	361.83008
34.2000008	224.46289
34.2200012	173.07617
34.2400017	219.66895
34.2599983	223.24121
34.2799988	288.79395
34.2999992	248.3291
34.3199997	132.84375
34.3400002	67.33789
34.3600006	157.8125
34.3800011	204.26758
34.4000015	-7.2959
34.4199982	58.11816
34.4399986	182.51465
34.4599991	3.89258
34.4799995	91.25098
34.5	-18.41113
34.5200005	166.9082
34.5400009	-29.79199
34.5600014	23.48828
34.5800018	194.75
34.5999985	-66.01074
34.6199989	126.21289
34.6399994	20.41699
34.6599998	144.60156
34.6800003	238.76562
34.7000008	278.91309
34.7200012	156.04102
34.7400017	559.15039
34.7599983	444.23926
34.7799988	364.31152
34.7999992	250.36523
34.8199997	324.39941
34.8400002	499.41504
34.8600006	311.41309
34.8800011	287.3916
34.9000015	227.35156
34.9199982	262.29297
34.9399986	109.21777
34.9599991	130.12402
34.9799995	93.0127
35	-47.11719
35.0200005	136.73633
35.0400009	-64.43164
35.0600014	-76.61328
35.0800018	-138.81445
35.0999985	106.96582
35.1199989	-89.26855
35.1399994	43.47852
35.1599998	-114.79199
35.1800003	157.9209
35.2000008	-188.38477
35.2200012	-3.70605
35.2400017	28.9541
35.2599983	210.59863
35.2799988	61.22656
35.2999992	113.83789
35.3199997	70.43164
35.3400002	126.00977
35.3600006	3.57227
35.3800011	25.11816
35.4000015	357.64648
35.4199982	185.15918
35.4399986	427.65723
35.4599991	260.1377
35.4799995	400.60254
35.5	423.05371
35.5200005	451.48926
35.5400009	649.90723
35.5600014	554.31152
35.5800018	515.70117
35.5999985	509.07227
35.6199989	489.43164
35.6399994	306.77441
35.6599998	482.10352
35.6800003	405.41797
35.7000008	328.71875
35.7200012	353.00293
35.7400017	247.27344
35.7599983	228.5293
35.7799988	391.77148
35.7999992	276.00098
35.8199997	378.21484
35.8400002	419.41699
35.8600006	364.60352
35.8800011	326.77832
35.9000015	623.94043
35.9199982	490.08594
35.9399986	646.2207
35.9599991	705.34082
35.9799995	890.4502
36	932.5459
36.0200005	976.62793
36.0400009	905.69922
36.0600014	1001.75781
36.0800018	1025.80371
36.0999985	870.83594
36.1199989	893.85742
36.1399994	584.86816
36.1599998	611.86523
36.1800003	662.85254
36.2000008	756.82715
36.2200012	526.79199
36.2400017	479.74414
36.2599983	391.68555
36.2799988	326.61426
36.2999992	456.53516
36.3199997	321.44336
36.3400002	401.3418
36.3600006	481.22852
36.3800011	436.10645
36.4000015	488.97363
36.4199982	324.8291
36.4399986	268.67676
36.4599991	331.51416
36.4799995	194.34229
36.5	254.16064
36.5200005	135.96826
36.5400009	362.76855
36.5600014	275.55811
36.5800018	36.33887
36.5999985	58.10986
36.6199989	75.87256
36.6399994	220.62695
36.6599998	39.37305
36.6800003	16.11084
36.7000008	-39.16113
36.7200012	-178.43896
36.7400017	-135.72656
36.7599983	-121.02295
36.7799988	40.67529
36.7999992	-169.63574
36.8199997	-26.9541
36.8400002	-14.28076
36.8600006	28.3877
36.8800011	53.04687
36.9000015	-113.30127
36.9199982	19.34277
36.9399986	-39.01758
36.9599991	0.61475
36.9799995	107.23926
37	85.85791
37.0200005	247.47168
37.0400009	201.07715
37.0600014	192.67773
37.0800018	326.271
37.0999985	265.8584
37.1199989	341.44092
37.1399994	71.0166
37.1599998	164.58789
37.1800003	103.15283
37.2000008	51.7124
37.2200012	31.2666
37.2400017	147.81641
37.2599983	-17.64014
37.2799988	90.89844
37.2999992	46.43213
37.3199997	-23.03809
37.3400002	90.48682
37.3600006	153.00684
37.3800011	145.52246
37.4000015	100.03418
37.4199982	273.53955
37.4399986	109.04199
37.4599991	-2.45898
37.4799995	179.03516
37.5	253.52539
37.5200005	347.01172
37.5400009	104.49414
37.5600014	255.97314
37.5800018	159.44873
37.5999985	221.91943
37.6199989	65.3877
37.6399994	39.85156
37.6599998	16.31299
37.6800003	155.77148
37.7000008	365.22656
37.7200012	266.67822
37.7400017	65.12744
37.7599983	314.57227
37.7799988	176.01514
37.7999992	151.45508
37.8199997	-65.1084
37.8400002	162.32666
37.8600006	1.75781
37.8800011	-56.81299
37.9000015	148.61328
37.9199982	-169.96387
37.9399986	-104.54199
37.9599991	-102.12305
37.9799995	-166.70654
38	-83.29395
38.0200005	-256.88135
38.0400009	-173.47217
38.0600014	-134.06543
38.0800018	-82.66064
38.0999985	-72.25879
38.1199989	-190.85791
38.1399994	-52.45947
38.1599998	-192.06396
38.1800003	24.33057
38.2000008	-102.27783
38.2200012	-71.8877
38.2400017	-191.5
38.2599983	-152.11426
38.2799988	-114.73242
38.2999992	-13.3501
38.3199997	-28.9707
38.3400002	25.40723
38.3600006	3.7832
38.3800011	170.15576
38.4000015	10.52734
38.4199982	56.89551
38.4399986	223.26367
38.4599991	338.62695
38.4799995	275.99072
38.5	365.35156
38.5200005	447.71094
38.5400009	629.06689
38.5600014	326.42139
38.5800018	491.77393
38.5999985	348.12158
38.6199989	367.46924
38.6399994	371.81494
38.6599998	299.1582
38.6800003	145.49805
38.7000008	229.83594
38.7200012	204.17139
38.7400017	104.50293
38.7599983	73.83252
38.7799988	65.15967
38.7999992	100.48437
38.8199997	43.80664
38.8400002	157.12451
38.8600006	8.44043
38.8800011	119.75342
38.9000015	102.06201
38.9199982	67.36768
38.9399986	146.67041
38.9599991	59.97119
38.9799995	97.26758
39	52.55908
39.0200005	145.84863
39.0400009	140.1333
39.0600014	9.41504
39.0800018	231.69189
39.0999985	47.96436
39.1199989	221.23291
39.1399994	252.49805
39.1599998	340.75732
39.1800003	296.01416
39.2000008	133.26416
39.2200012	310.51074
39.2400017	199.75195
39.2599983	105.9873
39.2799988	267.21777
39.2999992	129.44336
39.3199997	286.66357
39.3400002	111.87842
39.3600006	0.08594
39.3800011	93.28906
39.4000015	79.48535
39.4199982	117.67529
39.4399986	181.85889
39.4599991	192.03564
39.4799995	302.20605
39.5	192.36914
39.5200005	202.52637
39.5400009	150.67529
39.5600014	291.81641
39.5800018	280.95117
39.5999985	411.0752
39.6199989	163.19385
39.6399994	230.30371
39.6599998	311.40381
39.6800003	435.49707
39.7000008	363.58105
39.7200012	499.65479
39.7400017	469.7207
39.7599983	574.77588
39.7799988	450.82129
39.7999992	621.85742
39.8199997	601.88428
39.8400002	637.89941
39.8600006	744.9043
39.8800011	573.89941
39.9000015	695.88232
39.9199982	534.85303
39.9399986	459.81201
39.9599991	629.76123
39.9799995	772.69727
40	510.62109
40.0200005	476.53223
40.0400009	627.43066
40.0600014	521.31641
40.0800018	459.18799
40.0999985	672.04541
40.1199989	455.88916
40.1399994	629.72021
40.1599998	594.53613
40.1800003	623.33643
40.2000008	585.12256
40.2200012	573.89307
40.2400017	474.64795
40.2599983	645.38574
40.2799988	731.10889
40.2999992	760.81592
40.3199997	661.50488
40.3400002	734.17773
40.3600006	736.83252
40.3800011	582.46973
40.4000015	686.08887
40.4199982	590.68896
40.4399986	677.27148
40.4599991	632.83496
40.4799995	770.37939
40.5	747.90381
40.5200005	696.4082
40.5400009	790.89258
40.5600014	907.35645
40.5800018	744.79883
40.5999985	796.21924
40.6199989	902.61963
40.6399994	647.99707
40.6599998	673.35303
40.6800003	663.68555
40.7000008	784.99561
40.7200012	804.28223
40.7400017	624.54541
40.7599983	477.78369
40.7799988	669.99756
40.7999992	641.18799
40.8199997	543.35254
40.8400002	607.49121
40.8600006	588.60498
40.8800011	510.69141
40.9000015	635.75146
40.9199982	556.78418
40.9399986	606.79053
40.9599991	557.76953
40.9799995	606.71973
41	527.64209
41.0200005	588.53516
41.0400009	475.39941
41.0600014	576.2334
41.0800018	453.0376
41.0999985	590.81152
41.1199989	486.55518
41.1399994	473.26758
41.1599998	555.94873
41.1800003	471.59814
41.2000008	667.21436
41.2200012	619.79834
41.2400017	431.34961
41.2599983	639.8667
41.2799988	707.3501
41.2999992	799.7998
41.3199997	672.21484
41.3400002	661.59521
41.3600006	710.93994
41.3800011	755.24854
41.4000015	897.52148
41.4199982	722.75732
41.4399986	739.95654
41.4599991	703.11865
41.4799995	712.24268
41.5	511.32861
41.5200005	624.37598
41.5400009	634.38477
41.5600014	799.354
41.5800018	724.2832
41.5999985	674.17236
41.6199989	859.02148
41.6399994	550.8291
41.6599998	816.59619
41.6800003	656.32129
41.7000008	871.00391
41.7200012	631.64502
41.7400017	714.24316
41.7599983	645.79687
41.7799988	716.30762
41.7999992	594.77441
41.8199997	867.19727
41.8400002	833.57471
41.8600006	744.90723
41.8800011	679.19434
41.9000015	696.43555
41.9199982	562.63037
41.9399986	642.77832
41.9599991	824.87988
41.9799995	776.93311
42	675.93945
42.0200005	736.89746
42.0400009	759.80713
42.0600014	857.66797
42.0800018	821.479
42.0999985	815.24072
42.1199989	706.95215
42.1399994	842.61328
42.1599998	975.22461
42.1800003	947.78467
42.2000008	1049.29346
42.2200012	960.75
42.2400017	988.15479
42.2599983	1181.50732
42.2799988	1003.80713
42.2999992	1080.0542
42.3199997	1099.24756
42.3400002	1316.3877
42.3600006	1211.47314
42.3800011	1314.50537
42.4000015	1307.48193
42.4199982	1192.4043
42.4399986	1281.27148
42.4599991	1428.08301
42.4799995	1201.83887
42.5	1285.53809
42.5200005	1442.18164
42.5400009	1325.76855
42.5600014	1410.29834
42.5800018	1463.77051
42.5999985	1478.18555
42.6199989	1415.54346
42.6399994	1456.84277
42.6599998	1420.08398
42.6800003	1546.26709
42.7000008	1256.39111
42.7200012	1303.45654
42.7400017	1351.46289
42.7599983	1146.40967
42.7799988	1354.29687
42.7999992	1219.12451
42.8199997	1323.89209
42.8400002	1455.59912
42.8600006	1221.24609
42.8800011	1309.83252
42.9000015	1320.3584
42.9199982	1328.82324
42.9399986	1147.22705
42.9599991	1257.56934
42.9799995	1246.85059
43	1046.07031
43.0200005	1292.22852
43.0400009	1210.32471
43.0600014	998.35889
43.0800018	1243.33154
43.0999985	1157.24219
43.1199989	1015.09033
43.1399994	1029.87646
43.1599998	967.6001
43.1800003	860.26123
43.2000008	1017.85986
43.2200012	954.396
43.2400017	860.86963
43.2599983	971.28076
43.2799988	955.62891
43.2999992	853.91455
43.3199997	876.1377
43.3400002	949.29785
43.3600006	927.396
43.3800011	940.43115
43.4000015	734.40332
43.4199982	786.31396
43.4399986	864.16113
43.4599991	935.94629
43.4799995	822.66895
43.5	723.3291
43.5200005	885.92676
43.5400009	887.4624
43.5600014	910.93701
43.5800018	949.34912
43.5999985	915.69971
43.6199989	908.98779
43.6399994	1018.21533
43.6599998	1011.38135
43.6800003	878.48633
43.7000008	1163.52979
43.7200012	1047.51318
43.7400017	1044.43555
43.7599983	1117.29834
43.7799988	1332.1001
43.7999992	1342.84277
43.8199997	1326.52539
43.8400002	1153.14941
43.8600006	1284.71387
43.8800011	1211.21973
43.9000015	1111.66699
43.9199982	1071.05664
43.9399986	1069.38818
43.9599991	1059.66211
43.9799995	924.87939
44	947.04004
44.0200005	988.14355
44.0400009	1082.19189
44.0600014	843.18408
44.0800018	934.12207
44.0999985	915.00488
44.1199989	928.83398
44.1399994	847.60937
44.1599998	761.33105
44.1800003	852.99951
44.2000008	857.61621
44.2200012	789.18066
44.2400017	1011.69482
44.2599983	937.15918
44.2799988	636.57178
44.2999992	828.93457
44.3199997	841.24854
44.3400002	838.51514
44.3600006	876.7334
44.3800011	894.9043
44.4000015	872.03027
44.4199982	692.11035
44.4399986	851.14453
44.4599991	882.1333
44.4799995	998.07861
44.5	995.98291
44.5200005	869.84326
44.5400009	1099.6626
44.5600014	854.44043
44.5800018	1048.17871
44.5999985	828.87988
44.6199989	867.54004
44.6399994	679.16406
44.6599998	784.75098
44.6800003	596.30273
44.7000008	767.81836
44.7200012	629.30127
44.7400017	860.75
44.7599983	769.16797
44.7799988	708.55322
44.7999992	885.90869
44.8199997	708.23486
44.8400002	626.53271
44.8600006	918.80225
44.8800011	721.04687
44.9000015	699.26465
44.9199982	749.46094
44.9399986	637.63184
44.9599991	838.78076
44.9799995	841.90967
45	684.01709
45.0200005	612.10596
45.0400009	614.17725
45.0600014	790.23389
45.0800018	577.27344
45.0999985	533.29932
45.1199989	504.31348
45.1399994	766.31494
45.1599998	437.30518
45.1800003	634.28711
45.2000008	477.26123
45.2200012	500.22705
45.2400017	308.18896
45.2599983	376.14795
45.2799988	327.10254
45.2999992	284.05615
45.3199997	271.00977
45.3400002	278.96387
45.3600006	168.92187
45.3800011	88.88428
45.4000015	51.85205
45.4199982	95.82617
45.4399986	-34.19043
45.4599991	100.80225
45.4799995	46.80615
45.5	-76.17725
45.5200005	-53.14502
45.5400009	30.90332
45.5600014	3.96826
45.5800018	22.05176
45.5999985	-64.84375
45.6199989	-122.71729
45.6399994	20.43408
45.6599998	-5.39014
45.6800003	-30.18701
45.7000008	-1.95557
45.7200012	-224.69385
45.7400017	-126.40088
45.7599983	-154.07324
45.7799988	-136.71094
45.7999992	-196.31201
45.8199997	-315.87402
45.8400002	-185.39551
45.8600006	-153.87549
45.8800011	-339.31055
45.9000015	-292.70117
45.9199982	-259.04346
45.9399986	-250.33691
45.9599991	-272.58008
45.9799995	-322.771
46	-387.90674
46.0200005	-381.98682
46.0400009	-345.00928
46.0600014	-395.9707
46.0800018	-533.86963
46.0999985	-488.70605
46.1199989	-192.47607
46.1399994	-246.18066
46.1599998	-287.81543
46.1800003	-429.37842
46.2000008	-324.86865
46.2200012	-333.28467
46.2400017	-557.62402
46.2599983	-353.88379
46.2799988	-415.06396
46.2999992	-337.16162
46.3199997	-313.17432
46.3400002	-456.10205
46.3600006	-510.94141
46.3800011	-440.68945
46.4000015	-580.34619
46.4199982	-489.90869
46.4399986	-557.37598
46.4599991	-532.74561
46.4799995	-506.01563
46.5	-420.18311
46.5200005	-525.24756
46.5400009	-540.20703
46.5600014	-538.05859
46.5800018	-686.80078
46.5999985	-557.43115
46.6199989	-610.94922
46.6399994	-459.35205
46.6599998	-707.63818
46.6800003	-513.80518
46.7000008	-790.85059
46.7200012	-683.77441
46.7400017	-551.57324
46.7599983	-587.24512
46.7799988	-635.78955
46.7999992	-561.20361
46.8199997	-705.48535
46.8400002	-690.63281
46.8600006	-733.64502
46.8800011	-739.52002
46.9000015	-546.25488
46.9199982	-771.84863
46.9399986	-714.2998
46.9599991	-779.60645
46.9799995	-705.76611
47	-784.77783
47.0200005	-704.63965
47.0400009	-821.34961
47.0600014	-582.90625
47.0800018	-531.30811
47.0999985	-605.55322
47.1199989	-635.63965
47.1399994	-560.56641
47.1599998	-590.33252
47.1800003	-589.93457
47.2000008	-842.37256
47.2200012	-663.64404
47.2400017	-591.74854
47.2599983	-619.68408
47.2799988	-605.44922
47.2999992	-613.04199
47.3199997	-647.4624
47.3400002	-554.70752
47.3600006	-502.77686
47.3800011	-403.66943
47.4000015	-357.38379
47.4199982	-595.91895
47.4399986	-449.27295
47.4599991	-420.44531
47.4799995	-535.43457
47.5	-297.24023
47.5200005	-368.86084
47.5400009	-469.2959
47.5600014	-479.54395
47.5800018	-490.60498
47.5999985	-417.47705
47.6199989	-530.16064
47.6399994	-630.65381
47.6599998	-586.95654
47.6800003	-694.06836
47.7000008	-585.98779
47.7200012	-760.71484
47.7400017	-706.24951
47.7599983	-624.59326
47.7799988	-797.74121
47.7999992	-646.6958
47.8199997	-661.45703
47.8400002	-665.02393
47.8600006	-729.39648
47.8800011	-661.57715
47.9000015	-709.56152
47.9199982	-579.35303
47.9399986	-621.9502
47.9599991	-526.35498
47.9799995	-640.56641
48	-591.58398
48.0200005	-647.41113
48.0400009	-679.04736
48.0600014	-646.49072
48.0800018	-614.74658
48.0999985	-590.8125
48.1199989	-458.68994
48.1399994	-646.37891
48.1599998	-591.8833
48.1800003	-712.20166
48.2000008	-622.33789
48.2200012	-591.29102
48.2400017	-674.06299
48.2599983	-695.65869
48.2799988	-719.07715
48.2999992	-837.31641
48.3199997	-701.38574
48.3400002	-709.28076
48.3600006	-605.00977
48.3800011	-604.56885
48.4000015	-564.96436
48.4199982	-707.20166
48.4399986	-628.27344
48.4599991	-642.19287
48.4799995	-562.95459
48.5	-571.56689
48.5200005	-532.0332
48.5400009	-464.354
48.5600014	-556.53271
48.5800018	-529.57568
48.5999985	-543.48584
48.6199989	-353.26563
48.6399994	-483.91846
48.6599998	-308.44824
48.6800003	-292.8623
48.7000008	-263.16211
48.7200012	-399.35547
48.7400017	-195.44385
48.7599983	-294.43506
48.7799988	-289.33154
48.7999992	-228.1416
48.8199997	-322.87012
48.8400002	-198.51758
48.8600006	-239.09229
48.8800011	-211.60596
48.9000015	-332.05664
48.9199982	-277.4585
48.9399986	-340.81006
48.9599991	-204.12598
48.9799995	-47.40576
49	-178.66113
49.0200005	-101.89697
49.0400009	-232.12109
49.0600014	-200.34668
49.0800018	-146.57617
49.0999985	-156.81738
49.1199989	-134.0791
49.1399994	-129.37549
49.1599998	-24.70654
49.1800003	58.91211
49.2000008	42.47803
49.2200012	-69.03076
49.2400017	-57.60986
49.2599983	-156.28271
49.2799988	-138.0459
49.2999992	6.0791
49.3199997	14.08887
49.3400002	-17.03223
49.3600006	-206.29834
49.3800011	-192.71094
49.4000015	-36.28955
49.4199982	-13.05127
49.4399986	-93.99561
49.4599991	-90.14355
49.4799995	-205.50488
49.5	-125.09326
49.5200005	-203.92773
49.5400009	-197.01416
49.5600014	-154.37451
49.5800018	-53.01563
49.5999985	-104.95947
49.6199989	-17.21484
49.6399994	-86.79932
49.6599998	-50.7334
49.6800003	89.97363
49.7000008	-1.70068
49.7200012	-41.76807
49.7400017	-110.24902
49.7599983	-3.16113
49.7799988	-80.52051
49.7999992	-17.3457
49.8199997	4.34277
49.8400002	-62.47217
49.8600006	-71.81006
49.8800011	-39.69336
49.9000015	57.86084
49.9199982	137.82959
49.9399986	32.19482
49.9599991	-4.06787
49.9799995	89.02197
50.0         0.0

# vim:ts=8:sw=8
