# Lines beginning with `#' are comments and are ignored.
# Blank lines are significant: do not add or remove!
# _database_code_amcsd 0009325
#
# sg, abc, angles.
227a    35.1363398 35.1363398 35.1363398    90 90 90
# ctl, extra.
0.25 0.75 0.875 0.5 1.0
# limits.
--

# rad/asf, n, limits, comb.
# rads: (1.6 1) -> (1.088 1.26).
Zr4+    96      --      --
# zooms.
1.6:0-0
# comb, bound.
#0@c1   0       0       0.14784
#1@e1   0.30624 0       0.25

# 2theta, fwhm, hkl, mult, val.
25.59   0.2     0 1 2   6       61.91
35.17   0.2     1 0 4   6       96.62
37.80   0.2     1 1 0   6       44.59
43.38   0.2     1 1 3   12      99.82
46.21   0.2     2 0 2   6       1.46
52.58   0.2     0 2 4   6       50.05
57.54   0.2     1 1 6   12      100.00
59.78   0.2     2 1 1   12      2.60
61.17   0.2     1 2 2   12      3.30
61.35   0.2     0 1 8   6       7.58
66.56   0.2     2 1 4   12      39.66
68.25   0.2     3 0 0   6       61.31
70.46   0.2     1 2 5   12      1.31
74.36   0.2     2 0 8   6       1.52
76.94   0.2     1 0 10  6       17.73
77.30   0.2     1 1 9   12      9.57
80.75   0.2     2 2 0   6       2.29
84.41   0.2     2 2 3   12      1.91
86.41   0.2     3 1 2   12      1.40
86.57   0.2     1 2 8   12      3.00
89.07   0.2     0 2 10  6       8.37

#spectrum
3	0.5498
3.01999998	0.5488
3.03999996	0.5488
3.05999994	0.5488
3.07999992	0.5479
3.0999999	0.5479
3.11999989	0.5479
3.1400001	0.5479
3.16000009	0.5478
3.18000007	0.5479
3.20000005	0.5468
3.22000003	0.5469
3.24000001	0.5469
3.25999999	0.5469
3.27999997	0.5469
3.29999995	0.5469
3.31999993	0.5459
3.33999991	0.5459
3.3599999	0.5459
3.38000011	0.5459
3.4000001	0.5459
3.42000008	0.5459
3.44000006	0.5449
3.46000004	0.545
3.48000002	0.5449
3.5	0.545
3.51999998	0.5449
3.53999996	0.544
3.55999994	0.5439
3.57999992	0.544
3.5999999	0.5439
3.61999989	0.5439
3.6400001	0.543
3.66000009	0.543
3.68000007	0.543
3.70000005	0.542
3.72000003	0.542
3.74000001	0.542
3.75999999	0.542
3.77999997	0.542
3.79999995	0.541
3.81999993	0.5411
3.83999991	0.541
3.8599999	0.541
3.88000011	0.5401
3.9000001	0.5401
3.92000008	0.5401
3.94000006	0.54
3.96000004	0.539
3.98000002	0.5391
4	0.5391
4.01999998	0.539
4.03999996	0.5381
4.05999994	0.5381
4.07999992	0.5381
4.0999999	0.5381
4.11999989	0.5381
4.13999987	0.5371
4.15999985	0.5371
4.17999983	0.5371
4.19999981	278.2529
4.21999979	362.6777
4.23999977	492.2197
4.26000023	727.1015
4.28000021	1487.5254
4.30000019	5208.1202
4.32000017	17986.8105
4.34000015	39413.3056
4.36000013	47209.8457
4.38000011	29785.9072
4.4000001	10892.8223
4.42000008	2911.7207
4.44000006	1022.8975
4.46000004	602.668
4.48000002	428.0507
4.5	321.5859
4.51999998	0.5323
4.53999996	0.5322
4.55999994	0.5322
4.57999992	0.5322
4.5999999	0.5322
4.61999989	0.5322
4.63999987	0.5322
4.65999985	0.5313
4.67999983	0.5303
4.69999981	0.5302
4.71999979	0.5302
4.73999977	0.5293
4.76000023	0.5293
4.78000021	0.5293
4.80000019	0.5293
4.82000017	0.5284
4.84000015	0.5283
4.86000013	0.5283
4.88000011	0.5283
4.9000001	0.5273
4.92000008	0.5274
4.94000006	0.5274
4.96000004	0.5273
4.98000002	0.5273
5	0.5263
5.01999998	0.5263
5.03999996	0.5254
5.05999994	0.5254
5.07999992	0.5254
5.0999999	0.5245
5.11999989	0.5254
5.13999987	0.5244
5.15999985	0.5245
5.17999983	0.5244
5.19999981	0.5234
5.21999979	0.5225
5.23999977	0.5235
5.26000023	0.5224
5.28000021	0.5224
5.30000019	0.5215
5.32000017	0.5215
5.34000015	0.5215
5.36000013	0.5215
5.38000011	0.5205
5.4000001	0.5205
5.42000008	0.5196
5.44000006	0.5195
5.46000004	0.5195
5.48000002	0.5195
5.5	0.5185
5.51999998	0.5186
5.53999996	0.5176
5.55999994	0.5176
5.57999992	0.5176
5.5999999	0.5176
5.61999989	0.5166
5.63999987	0.5166
5.65999985	0.5156
5.67999983	0.5166
5.69999981	0.5156
5.71999979	0.5156
5.73999977	0.5156
5.76000023	0.5146
5.78000021	0.5147
5.80000019	0.5146
5.82000017	0.5137
5.84000015	0.5137
5.86000013	0.5136
5.88000011	0.5137
5.9000001	0.5127
5.92000008	0.5117
5.94000006	0.5118
5.96000004	0.5117
5.98000002	0.5107
6	0.5107
6.01999998	0.5097
6.03999996	0.5098
6.05999994	0.5088
6.07999992	0.5097
6.0999999	0.5097
6.11999989	0.5078
6.13999987	0.5088
6.15999985	0.5078
6.17999983	0.5078
6.19999981	0.5078
6.21999979	0.5068
6.23999977	0.5058
6.26000023	0.5069
6.28000021	0.5059
6.30000019	0.5058
6.32000017	0.5049
6.34000015	0.5049
6.36000013	0.5039
6.38000011	0.5049
6.4000001	0.5039
6.42000008	0.503
6.44000006	0.5029
6.46000004	0.502
6.48000002	0.503
6.5	0.502
6.51999998	0.5019
6.53999996	0.501
6.55999994	0.502
6.57999992	0.501
6.5999999	0.5
6.61999989	0.5
6.63999987	0.499
6.65999985	0.499
6.67999983	0.499
6.69999981	0.498
6.71999979	0.498
6.73999977	0.498
6.76000023	0.497
6.78000021	0.4971
6.80000019	0.4961
6.82000017	0.4961
6.84000015	0.4951
6.86000013	0.4951
6.88000011	0.4951
6.9000001	0.4951
6.92000008	0.4942
6.94000006	0.4952
6.96000004	0.4961
6.98000002	0.4961
7	0.4971
7.01999998	0.499
7.03999996	0.5049
7.05999994	0.5361
7.07999992	0.6416
7.0999999	0.8018
7.11999989	0.8545
7.13999987	0.7266
7.15999985	0.5821
7.17999983	0.5147
7.19999981	0.498
7.21999979	0.4932
7.23999977	0.4912
7.26000023	0.4902
7.28000021	0.4873
7.30000019	0.4863
7.32000017	0.4863
7.34000015	0.4853
7.36000013	0.4854
7.38000011	0.4854
7.4000001	0.4844
7.42000008	0.4844
7.44000006	0.4844
7.46000004	0.4834
7.48000002	0.4824
7.5	0.4824
7.51999998	0.4815
7.53999996	0.4815
7.55999994	0.4814
7.57999992	0.4805
7.5999999	0.4805
7.61999989	0.4805
7.63999987	0.4795
7.65999985	0.4795
7.67999983	0.4786
7.69999981	0.4785
7.71999979	0.4785
7.73999977	0.4765
7.76000023	0.4775
7.78000021	0.4766
7.80000019	0.4756
7.82000017	0.4756
7.84000015	0.4755
7.86000013	0.4746
7.88000011	0.4746
7.9000001	0.4736
7.92000008	0.4736
7.94000006	0.4726
7.96000004	0.4727
7.98000002	0.4727
8	0.4717
8.02000046	0.4717
8.03999996	0.4717
8.06000042	0.4707
8.07999992	0.4707
8.10000038	0.4698
8.11999989	0.4688
8.14000034	0.4688
8.15999985	0.4678
8.18000031	82.3115
8.19999981	146.959
8.22000027	195.498
8.23999977	275.4736
8.26000023	471.958
8.27999973	1352.4658
8.30000019	4901.169
8.31999969	12839.1865
8.34000015	19843.7286
8.35999966	17258.0391
8.38000011	8879.3838
8.39999962	2971.831
8.42000008	861.8164
8.43999958	368.6016
8.46000004	236.6758
8.47999954	172.5332
8.5	52.0781
8.52000046	0.46
8.53999996	82.0713
8.56000042	104.3975
8.57999992	187.8584
8.60000038	254.7402
8.61999989	377.6016
8.64000034	781.6523
8.65999985	2680.3994
8.68000031	8823.1553
8.69999981	18704.5205
8.72000027	22632.4805
8.73999977	15846.8144
8.76000023	6799.46
8.77999973	2057.0157
8.80000019	659.0654
8.81999969	342.6739
8.84000015	235.9814
8.85999966	175.7744
8.88000011	53.7286
8.89999962	0.4512
8.92000008	0.4511
8.93999958	0.4502
8.96000004	0.4492
8.97999954	0.4483
9	0.4482
9.02000046	0.4483
9.03999996	0.4473
9.06000042	0.4473
9.07999992	0.4463
9.10000038	0.4463
9.11999989	0.4463
9.14000034	0.4444
9.15999985	0.4454
9.18000031	0.4443
9.19999981	0.4434
9.22000027	0.4434
9.23999977	0.4434
9.26000023	0.4424
9.27999973	0.4415
9.30000019	0.4405
9.31999969	0.4404
9.34000015	0.4404
9.35999966	0.4395
9.38000011	0.4394
9.39999962	0.4385
9.42000008	0.4384
9.43999958	0.4375
9.46000004	0.4365
9.47999954	0.4365
9.5	0.4365
9.52000046	0.4355
9.53999996	0.4355
9.56000042	0.4355
9.57999992	0.4346
9.60000038	0.4335
9.61999989	0.4336
9.64000034	0.4326
9.65999985	0.4327
9.68000031	0.4316
9.69999981	0.4306
9.72000027	0.4297
9.73999977	0.4297
9.76000023	0.4287
9.77999973	0.4297
9.80000019	0.4287
9.81999969	0.4268
9.84000015	0.4277
9.85999966	0.4268
9.88000011	0.4258
9.89999962	33.4991
9.92000008	58.666
9.93999958	77.5147
9.96000004	107.9405
9.97999954	177.2696
10	472.625
10.0200005	1704.9541
10.04	4653.4726
10.0600004	7657.4687
10.0799999	7279.5752
10.1000004	4281.7783
10.1199999	1637.5674
10.1400003	487.5205
10.1599998	180.9639
10.1800003	106.8505
10.1999998	76.3994
10.2200003	23.8887
10.2399998	0.416
10.2600002	0.4161
10.2799997	0.4151
10.3000002	0.415
10.3199997	0.415
10.3400002	0.414
10.3599997	0.4141
10.3800001	0.4131
10.3999996	0.4121
10.4200001	0.4111
10.4399996	0.4112
10.46	0.4102
10.4799995	0.4102
10.5	0.4092
10.5200005	0.4082
10.54	0.4082
10.5600004	0.4072
10.5799999	0.4073
10.6000004	0.4063
10.6199999	0.4062
10.6400003	0.4062
10.6599998	0.4043
10.6800003	0.4043
10.6999998	0.4033
10.7200003	0.4033
10.7399998	0.4033
10.7600002	0.4024
10.7799997	0.4004
10.8000002	19.1036
10.8199997	24.3545
10.8400002	43.0039
10.8599997	58.7149
10.8800001	89.7618
10.8999996	204.4785
10.9200001	721.7344
10.9399996	2187.5762
10.96	4147.6602
10.9799995	4559.2432
11	3142.2735
11.0200005	1408.1181
11.04	451.628
11.0600004	146.2569
11.0799999	74.3916
11.1000004	51.0273
11.1199999	16.2149
11.1400003	12.334
11.1599998	0.3906
11.1800003	0.3897
11.1999998	0.3886
11.2200003	0.3887
11.2399998	0.3877
11.2600002	0.3867
11.2799997	0.3877
11.3000002	0.3857
11.3199997	0.3848
11.3400002	0.3848
11.3599997	0.3848
11.3800001	0.3838
11.3999996	0.3838
11.4200001	0.3819
11.4399996	0.3819
11.46	0.3818
11.4799995	0.3809
11.5	0.3809
11.5200005	0.3799
11.54	0.3789
11.5600004	0.3779
11.5799999	0.3779
11.6000004	0.3769
11.6199999	0.377
11.6400003	0.3759
11.6599998	0.375
11.6800003	0.375
11.6999998	0.374
11.7200003	0.3731
11.7399998	0.3731
11.7600002	0.3721
11.7799997	0.3721
11.8000002	0.3711
11.8199997	0.3701
11.8400002	0.3701
11.8599997	0.3691
11.8800001	0.3691
11.8999996	0.3682
11.9200001	0.3672
11.9399996	0.3662
11.96	0.3662
11.9799995	0.3652
12	0.3652
12.0200005	0.3643
12.04	0.3633
12.0600004	0.3633
12.0799999	0.3624
12.1000004	0.3614
12.1199999	0.3613
12.1400003	0.3604
12.1599998	0.9502
12.1800003	1.1113
12.1999998	1.6758
12.2200003	2.1407
12.2399998	2.9932
12.2600002	5.7695
12.2799997	18.5957
12.3000002	58.9531
12.3199997	121.7676
12.3400002	147.3848
12.3599997	114.1094
12.3800001	59.9541
12.3999996	21.959
12.4200001	7.0205
12.4399996	3.209
12.46	2.1806
12.4799995	1.6894
12.5	0.7832
12.5200005	0.3487
12.54	0.3486
12.5600004	0.3477
12.5799999	0.3467
12.6000004	0.3457
12.6199999	0.3448
12.6400003	0.3447
12.6599998	0.3437
12.6800003	0.3438
12.6999998	0.3428
12.7200003	0.3428
12.7399998	0.3418
12.7600002	0.3408
12.7799997	0.3398
12.8000002	0.3398
12.8199997	0.3389
12.8400002	0.3379
12.8599997	0.3379
12.8800001	0.3369
12.8999996	0.3369
12.9200001	11.4795
12.9399996	14.7188
12.96	25.6709
12.9799995	35.5537
13	57.7607
13.0200005	150.8984
13.04	535.915
13.0600004	1443.0254
13.0799999	2350.5449
13.1000004	2288.955
13.1199999	1540.0791
13.1400003	712.0029
13.1599998	237.583
13.1800003	78.4815
13.1999998	40.1152
13.2200003	27.6445
13.2399998	9.2217
13.2600002	7.0371
13.2799997	0.3233
13.3000002	0.3223
13.3199997	0.3223
13.3400002	0.3212
13.3599997	0.3212
13.3800001	0.3203
13.3999996	0.3203
13.4200001	0.3183
13.4399996	0.3174
13.46	0.3174
13.4799995	0.3174
13.5	0.3154
13.5200005	0.3155
13.54	0.3145
13.5600004	0.3135
13.5799999	0.3135
13.6000004	0.3135
13.6199999	0.3116
13.6400003	0.3116
13.6599998	0.3105
13.6800003	0.3096
13.6999998	0.3095
13.7200003	0.3086
13.7399998	0.3076
13.7600002	0.3076
13.7799997	0.3067
13.8000002	0.3066
13.8199997	0.3057
13.8400002	0.3046
13.8599997	0.3037
13.8800001	0.3027
13.8999996	0.3028
13.9200001	0.3018
13.9399996	0.3008
13.96	0.2998
13.9799995	0.2988
14	0.2998
14.0200005	0.2978
14.04	0.2979
14.0600004	0.2968
14.0799999	7.5078
14.1000004	9.5254
14.1199999	16.3017
14.1400003	22.1308
14.1599998	33.4785
14.1800003	74.46
14.1999998	258.1289
14.2200003	774.9463
14.2399998	1452.6464
14.2600002	1599.3135
14.2799997	1217.6191
14.3000002	673.2168
14.3199997	259.4267
14.3400002	81.6709
14.3599997	34.0849
14.3800001	21.5849
14.3999996	7.3086
14.4200001	5.4912
14.4399996	0.2832
14.46	0.2822
14.4799995	0.2822
14.5	0.2812
14.5200005	0.2813
14.54	0.2793
14.5600004	0.2793
14.5799999	0.2783
14.6000004	0.2773
14.6199999	0.2774
14.6400003	0.2764
14.6599998	0.2754
14.6800003	0.2744
14.6999998	0.2744
14.7200003	0.2734
14.7399998	4.623
14.7600002	5.8692
14.7799997	9.9746
14.8000002	13.6455
14.8199997	21.4141
14.8400002	52.3438
14.8599997	184.3154
14.8800001	513.876
14.8999996	871.9541
14.9200001	880.8242
14.9399996	648.706
14.96	351.2432
14.9799995	132.8945
15	42.2275
15.0200005	18.5264
15.04	12.0752
15.0600004	4.2842
15.0799999	3.4619
15.1000004	0.8808
15.1199999	1.1192
15.1400003	1.0127
15.1599998	0.7656
15.1800003	0.501
15.1999998	0.3389
15.2200003	0.2832
15.2399998	0.2696
15.2600002	0.2637
15.2799997	0.2559
15.3000002	0.2558
15.3199997	0.2519
15.3400002	0.251
15.3599997	0.25
15.3800001	0.25
15.3999996	0.249
15.4200001	0.248
15.4399996	0.2471
15.46	0.2461
15.4799995	0.246
15.5	0.2451
15.5200005	0.2442
15.54	0.2441
15.5600004	0.2431
15.5799999	0.2422
15.6000004	0.2422
15.6199999	0.2402
15.6400003	0.2393
15.6599998	0.2393
15.6800003	0.2373
15.6999998	0.2373
15.7200003	0.2364
15.7399998	0.2354
15.7600002	0.2354
15.7799997	0.7061
15.8000002	0.8448
15.8199997	1.2919
15.8400002	1.7149
15.8599997	2.7383
15.8800001	7.2031
15.8999996	24.6035
15.9200001	61.3623
15.9399996	90.9893
15.96	83.3564
15.9799995	60.0166
16	32.2207
16.0200005	12.1377
16.0400009	4.039
16.0599995	1.9648
16.0799999	1.3731
16.1000004	0.6163
16.1200008	0.5156
16.1399994	0.2207
16.1599998	0.2198
16.1800003	0.2197
16.2000008	0.2187
16.2199993	0.2188
16.2399998	0.2178
16.2600002	0.2168
16.2800007	0.2148
16.2999992	0.2148
16.3199997	0.2139
16.3400002	0.2138
16.3600006	1.5586
16.3799992	1.9287
16.3999996	2.4707
16.4200001	4.1601
16.4400005	6.0489
16.4599991	12.2294
16.4799995	40.4541
16.5	126.5352
16.5200005	251.6865
16.5400009	290.5225
16.5599995	234.6953
16.5799999	155.9522
16.6000004	74.0469
16.6200008	25.8633
16.6399994	10.4024
16.6599998	9.003
16.6800003	18.0713
16.7000008	40.7705
16.7199993	64.9307
16.7399998	62.0166
16.7600002	46.9747
16.7800007	28.2354
16.7999992	11.792
16.8199997	3.9053
16.8400002	1.6807
16.8600006	1.1114
16.8799992	0.5088
16.8999996	0.4258
16.9200001	0.1905
16.9400005	0.1895
16.9599991	0.1895
16.9799995	0.1895
17	0.1875
17.0200005	0.1875
17.0400009	0.1855
17.0599995	0.1856
17.0799999	0.1855
17.1000004	0.1836
17.1200008	0.1836
17.1399994	0.1826
17.1599998	0.1806
17.1800003	0.1806
17.2000008	0.1797
17.2199993	0.1797
17.2399998	0.1787
17.2600002	0.1777
17.2800007	0.1768
17.2999992	0.1758
17.3199997	0.9921
17.3400002	1.2461
17.3600006	2.0293
17.3799992	2.8789
17.3999996	5.498
17.4200001	17.5049
17.4400005	55.9756
17.4599991	115.7832
17.4799995	138.1533
17.5	113.0264
17.5200005	80.252
17.5400009	41.8105
17.5599995	15.1123
17.5799999	5.0928
17.6000004	2.6094
17.6200008	1.8369
17.6399994	0.752
17.6599998	0.6045
17.6800003	0.1612
17.7000008	0.1602
17.7199993	0.1592
17.7399998	0.1582
17.7600002	0.1572
17.7800007	0.1563
17.7999992	0.1563
17.8199997	0.1553
17.8400002	0.1543
17.8600006	0.4667
17.8799992	0.5625
17.8999996	0.8564
17.9200001	1.165
17.9400005	2.0479
17.9599991	6.084
17.9799995	19.8047
18	43.0644
18.0200005	54.0508
18.0400009	44.9795
18.0599995	33.2461
18.0799999	18.7901
18.1000004	7.2666
18.1200008	2.4346
18.1399994	1.1866
18.1599998	0.833
18.1800003	0.3858
18.2000008	0.3242
18.2199993	0.1396
18.2399998	0.1387
18.2600002	0.1377
18.2800007	0.1367
18.2999992	0.1367
18.3199997	0.1347
18.3400002	0.1348
18.3600006	0.1338
18.3799992	0.1328
18.3999996	0.1318
18.4200001	0.1308
18.4400005	0.1299
18.4599991	0.1289
18.4799995	0.128
18.5	0.1279
18.5200005	0.1269
18.5400009	0.1269
18.5599995	0.126
18.5799999	0.125
18.6000004	0.1231
18.6200008	0.123
18.6399994	0.122
18.6599998	0.1221
18.6800003	0.1211
18.7000008	0.1201
18.7199993	1.08
18.7399998	1.3545
18.7600002	1.7636
18.7800007	2.9854
18.7999992	4.6162
18.8199997	11.0107
18.8400002	38.2675
18.8600006	105.917
18.8799992	175.7119
18.8999996	169.8301
18.9200001	131.9257
18.9400005	93.042
18.9599991	45.7968
18.9799995	15.7207
19	5.5449
19.0200005	3.0742
19.0400009	1.1465
19.0599995	0.8613
19.0799999	0.6778
19.1000004	0.1035
19.1200008	0.1025
19.1399994	0.1016
19.1599998	0.1006
19.1800003	0.1006
19.2000008	0.0987
19.2199993	6.9317
19.2399998	8.834
19.2600002	11.6416
19.2800007	19.9814
19.2999992	29.9746
19.3199997	64.8262
19.3400002	220.9639
19.3600006	663.4551
19.3799992	1227.3047
19.3999996	1292.1699
19.4200001	1012.1865
19.4400005	762.0235
19.4599991	422.124
19.4799995	156.3584
19.5	51.1582
19.5200005	24.7959
19.5400009	8.6211
19.5599995	6.1748
19.5799999	4.6602
19.6000004	0.0821
19.6200008	0.082
19.6399994	0.081
19.6599998	0.0801
19.6800003	0.0801
19.7000008	0.0791
19.7199993	0.0781
19.7399998	0.0771
19.7600002	0.0762
19.7800007	0.0752
19.7999992	0.0752
19.8199997	0.0732
19.8400002	0.0733
19.8600006	0.0723
19.8799992	0.0703
19.8999996	0.0703
19.9200001	0.0703
19.9400005	0.0684
19.9599991	0.0684
19.9799995	0.0664
20	0.0654
20.0200005	0.0654
20.0400009	3.0244
20.0599995	3.8877
20.0799999	5.1865
20.1000004	8.9873
20.1200008	14.6299
20.1399994	38.2325
20.1599998	133.4297
20.1800003	345.0869
20.2000008	521.2354
20.2199993	463.9394
20.2399998	359.9394
20.2600002	266.1729
20.2800007	134.8682
20.2999992	46.5957
20.3199997	16.1455
20.3400002	8.7559
20.3600006	3.1699
20.3799992	2.3106
20.3999996	1.7637
20.4200001	0.0488
20.4400005	0.0479
20.4599991	0.0469
20.4799995	0.0469
20.5	0.0449
20.5200005	0.2265
20.5400009	0.2803
20.5599995	0.4453
20.5799999	0.6182
20.6000004	1.1104
20.6200008	3.3496
20.6399994	10.9913
20.6599998	29.5254
20.6800003	36.5264
20.7000008	32.8945
20.7199993	34.753
20.7399998	36.7509
20.7600002	55.3135
20.7800007	167.3145
20.7999992	511.1768
20.8199997	981.9062
20.8400002	1057.1387
20.8600006	814.9961
20.8799992	654.6201
20.8999996	418.1914
20.9200001	172.5967
20.9400005	55.3789
20.9599991	23.5118
20.9799995	15.0976
21	5.5957
21.0200005	4.1631
21.0400009	0.0225
21.0599995	0.0215
21.0799999	0.0215
21.1000004	0.0205
21.1200008	0.0196
21.1399994	0.0185
21.1599998	0.0176
21.1800003	0.0167
21.2000008	0.0156
21.2199993	0.0146
21.2399998	0.0147
21.2600002	0.0136
21.2800007	2.7061
21.2999992	3.4941
21.3199997	4.6816
21.3400002	8.0986
21.3600006	13.3106
21.3799992	35.294
21.3999996	122.8438
21.4200001	312.9814
21.4400005	461.4424
21.4599991	397.1582
21.4799995	307.0234
21.5	243.9726
21.5200005	133.5527
21.5400009	48.1016
21.5599995	16.043
21.5799999	8.1758
21.6000004	2.9531
21.6200008	2.124
21.6399994	1.5996
21.6599998	-0.0039
21.6800003	-0.0039
21.7000008	-0.0049
21.7199993	3.0976
21.7399998	3.9609
21.7600002	5.2344
21.7800007	8.8886
21.7999992	13.3389
21.8199997	28.7559
21.8400002	97.624
21.8600006	292.3242
21.8799992	536.1719
21.8999996	545.7392
21.9200001	410.4756
21.9400005	342.3516
21.9599991	230.8536
21.9799995	102.9013
22	49.6016
22.0200005	53.7481
22.0400009	55.5947
22.0599995	43.1846
22.0799999	34.3867
22.1000004	24.914
22.1200008	12.5889
22.1399994	4.2861
22.1599998	1.4902
22.1800003	0.8125
22.2000008	0.2842
22.2199993	0.1982
22.2399998	0.1425
22.2600002	-0.0293
22.2800007	-0.0293
22.2999992	-0.0313
22.3199997	-0.0312
22.3400002	-0.0323
22.3600006	-0.0332
22.3799992	-0.0342
22.3999996	-0.0341
22.4200001	-0.0351
22.4400005	-0.0362
22.4599991	4.8965
22.4799995	6.3984
22.5	8.6963
22.5200005	15.2861
22.5400009	27.7246
22.5599995	83.7793
22.5799999	279.7978
22.6000004	622.2392
22.6200008	773.6572
22.6399994	597.6826
22.6599998	479.3203
22.6800003	386.8164
22.7000008	203.2978
22.7199993	70.7998
22.7399998	24.2862
22.7600002	13.0244
22.7800007	4.8067
22.7999992	3.4677
22.8199997	2.6143
22.8400002	-0.0537
22.8600006	-0.0537
22.8799992	7.8125
22.8999996	10.1094
22.9200001	13.5615
22.9400005	23.2832
22.9599991	38.0068
22.9799995	99.3193
23	345.4512
23.0200005	890.6572
23.0400009	1320.0625
23.0599995	1114.2285
23.0799999	844.3184
23.1000004	742.4454
23.1200008	489.2286
23.1399994	294.2754
23.1599998	355.3672
23.1800003	471.3935
23.2000008	385.9834
23.2199993	289.0039
23.2399998	253.2197
23.2600002	157.999
23.2800007	62.9004
23.2999992	20.1514
23.3199997	8.9873
23.3400002	3.1787
23.3600006	2.2207
23.3799992	1.6387
23.3999996	-0.0762
23.4200001	-0.0771
23.4400005	-0.0782
23.4599991	-0.0791
23.4799995	-0.0791
23.5	-0.081
23.5200005	-0.0811
23.5400009	-0.0821
23.5599995	-0.084
23.5799999	0.4287
23.6000004	0.585
23.6200008	0.8252
23.6399994	1.5078
23.6599998	2.8281
23.6800003	8.791
23.7000008	29.3271
23.7199993	64.3076
23.7399998	78.0527
23.7600002	58.3311
23.7800007	46.8154
23.7999992	40.5264
23.8199997	22.789
23.8400002	8.1884
23.8600006	2.6601
23.8799992	1.3057
23.8999996	0.4268
23.9200001	0.2783
23.9400005	0.1855
23.9599991	-0.0997
23.9799995	3.6416
24	4.7266
24.0200005	6.3545
24.0400009	10.873
24.0599995	17.5771
24.0799999	44.9493
24.1000004	156.459
24.1200008	409.4941
24.1399994	619.6885
24.1599998	521.4052
24.1800003	380.4961
24.2000008	349.2588
24.2199993	243.0508
24.2399998	103.4092
24.2600002	33.1113
24.2800007	13.6963
24.2999992	4.7823
24.3199997	3.293
24.3400002	2.4131
24.3600006	-0.1162
24.3799992	-0.1172
24.3999996	-0.1182
24.4200001	-0.1191
24.4400005	-0.1201
24.4599991	-0.1201
24.4799995	-0.1221
24.5	-0.1221
24.5200005	-0.1231
24.5400009	-0.124
24.5599995	-0.125
24.5799999	-0.1259
24.6000004	-0.126
24.6200008	-0.1269
24.6399994	0.959
24.6599998	1.2647
24.6800003	1.7178
24.7000008	2.9649
24.7199993	4.581
24.7399998	10.4219
24.7600002	35.9795
24.7800007	104.29
24.7999992	181.1875
24.8199997	170.1396
24.8400002	118.4267
24.8600006	106.874
24.8799992	87.3213
24.8999996	43.1973
24.9200001	14.3975
24.9400005	5.1074
24.9599991	1.5966
24.9799995	1.0215
25	0.7061
25.0200005	-0.1435
25.0400009	4.5898
25.0599995	6.0068
25.0799999	8.1621
25.1000004	14.1016
25.1200008	24.5323
25.1399994	70.3613
25.1599998	239.3145
25.1800003	560.8213
25.2000008	734.5508
25.2199993	552.9141
25.2399998	415.6924
25.2600002	400.67
25.2800007	270.9756
25.2999992	111.2519
25.3199997	35.5186
25.3400002	15.3106
25.3600006	5.4971
25.3799992	3.8115
25.3999996	2.7978
25.4200001	-0.1602
25.4400005	-0.1611
25.4599991	-0.1631
25.4799995	-0.1631
25.5	-0.16308
25.5200005	-0.16406
25.5400009	-0.16601
25.5599995	-0.16699
25.5799999	-0.16699
25.6000004	-0.16797
25.6200008	-0.16894
25.6399994	-0.16992
25.6599998	-0.1709
25.6800003	9.04394
25.7000008	11.82227
25.7199993	16.05469
25.7399998	27.65528
25.7600002	48.75683
25.7800007	142.15135
25.7999992	479.24025
25.8199997	1098.88082
25.8400002	1398.36625
25.8600006	1023.99898
25.8799992	767.60454
25.8999996	762.92387
25.9200001	531.9023
25.9400005	222.77249
25.9599991	71.21586
25.9799995	30.11425
26	10.90528
26.0200005	7.57129
26.0400009	5.5791
26.0599995	6.71582
26.0799999	8.84961
26.1000004	12.14063
26.1200008	21.25293
26.1399994	40.35938
26.1599998	126.59762
26.1800003	424.51463
26.2000008	875.90722
26.2199993	999.26078
26.2399998	715.70412
26.2600002	610.333
26.2800007	749.99317
26.2999992	1082.29882
26.3199997	1858.58494
26.3400002	2294.9766
26.3600006	1679.91505
26.3799992	1212.95118
26.3999996	1230.47657
26.4200001	916.59763
26.4400005	402.53617
26.4599991	129.56156
26.4799995	51.9375
26.5	18.57617
26.5200005	12.78418
26.5400009	9.40137
26.5599995	-0.20606
26.5799999	-0.20703
26.6000004	-0.20703
26.6200008	-0.20898
26.6399994	-0.20996
26.6599998	-0.20996
26.6800003	-0.21094
26.7000008	-0.21191
26.7199993	-0.21289
26.7399998	-0.21387
26.7600002	-0.21387
26.7800007	-0.21582
26.7999992	-0.21582
26.8199997	-0.2168
26.8400002	-0.21777
26.8600006	-0.21778
26.8799992	-0.21972
26.8999996	-0.21973
26.9200001	-0.2207
26.9400005	-0.22168
26.9599991	-0.22265
26.9799995	-0.22266
27	-0.22363
27.0200005	-0.22461
27.0400009	14.05371
27.0599995	18.45508
27.0799999	25.23535
27.1000004	43.75488
27.1200008	82.1543
27.1399994	254.90819
27.1599998	833.68165
27.1800003	1754.74418
27.2000008	2010.82622
27.2199993	1372.76561
27.2399998	1074.63285
27.2600002	1204.93847
27.2800007	1124.53316
27.2999992	1046.09664
27.3199997	927.88968
27.3400002	601.20509
27.3600006	439.95509
27.3799992	462.71872
27.3999996	337.46775
27.4200001	141.20215
27.4400005	45.12305
27.4599991	18.50489
27.4799995	6.68164
27.5	4.57617
27.5200005	3.33007
27.5400009	-0.24414
27.5599995	-0.24512
27.5799999	-0.2461
27.6000004	-0.24707
27.6200008	-0.04102
27.6399994	0.01465
27.6599998	0.09766
27.6800003	0.22656
27.7000008	0.58887
27.7199993	1.45508
27.7399998	5.34472
27.7600002	16.94922
27.7800007	32.63867
27.7999992	33.23828
27.8199997	21.23438
27.8400002	17.50586
27.8600006	18.79883
27.8799992	12.72558
27.8999996	5.02149
27.9200001	1.43066
27.9400005	0.4834
27.9599991	0.02051
27.9799995	6.1123
28	7.84766
28.0200005	10.37695
28.0400009	14.74317
28.0599995	28.06738
28.0799999	70.62011
28.1000004	244.16602
28.1200008	642.21483
28.1399994	974.21973
28.1599998	783.43558
28.1800003	497.61421
28.2000008	497.64649
28.2199993	484.72075
28.2399998	273.27637
28.2600002	97.45019
28.2800007	32.51563
28.2999992	10.27539
28.3199997	6.51368
28.3400002	4.62402
28.3600006	3.42675
28.3799992	-0.27636
28.3999996	-0.27636
28.4200001	-0.27734
28.4400005	-0.27832
28.4599991	-0.2793
28.4799995	-0.28027
28.5	-0.28027
28.5200005	-0.28125
28.5400009	-0.2832
28.5599995	-0.26465
28.5799999	-0.26074
28.6000004	-0.25293
28.6200008	-0.24024
28.6399994	-0.2002
28.6599998	-0.06153
28.6800003	0.48926
28.7000008	1.67285
28.7199993	2.53028
28.7399998	1.86425
28.7600002	1.07129
28.7800007	1.12403
28.7999992	1.09765
28.8199997	0.49023
28.8400002	-0.01465
28.8600006	-0.2002
28.8799992	-0.26465
28.8999996	17.77442
28.9200001	22.98535
28.9400005	30.78906
28.9599991	43.4834
28.9799995	81.73438
29	203.14355
29.0200005	708.39747
29.0400009	1860.26362
29.0599995	2839.58596
29.0799999	2293.52437
29.1000004	1433.23823
29.1200008	1512.29587
29.1399994	1900.04981
29.1599998	1891.13481
29.1800003	1563.55958
29.2000008	941.73442
29.2199993	597.41305
29.2399998	661.20022
29.2600002	592.2842
29.2800007	305.52148
29.2999992	99.30469
29.3199997	35.13476
29.3400002	11.96778
29.3600006	7.87695
29.3799992	5.66113
29.3999996	-0.31348
29.4200001	-0.31348
29.4400005	-0.31446
29.4599991	13.90722
29.4799995	17.96485
29.5	24.00683
29.5200005	33.7168
29.5400009	61.94824
29.5599995	146.25781
29.5799999	501.52832
29.6000004	1380.66405
29.6200008	2234.48044
29.6399994	1888.0322
29.6599998	1121.76656
29.6800003	1046.14937
29.7000008	1185.72657
29.7199993	798.81936
29.7399998	319.94336
29.7600002	102.29883
29.7800007	29.87304
29.7999992	22.72168
29.8199997	18.97363
29.8400002	18.08203
29.8600006	12.56738
29.8799992	25.79395
29.8999996	75.57226
29.9200001	251.63379
29.9400005	578.78511
29.9599991	736.88187
29.9799995	509.41699
30	331.80371
30.0200005	400.82325
30.0400009	471.86914
30.0599995	395.52735
30.0799999	248.84668
30.1000004	128.48925
30.1200008	96.12012
30.1399994	111.06934
30.1599998	83.73828
30.1800003	37.53808
30.2000008	10.91601
30.2199993	2.78614
30.2399998	1.39942
30.2600002	0.86621
30.2800007	0.55273
30.2999992	-0.34473
30.3199997	-0.34473
30.3400002	4.33691
30.3600006	5.67773
30.3799992	7.67578
30.3999996	10.90234
30.4200001	20.28418
30.4400005	48.93261
30.4599991	168.333
30.4799995	457.43652
30.5	726.51267
30.5200005	599.4844
30.5400009	345.49902
30.5599995	321.71582
30.5799999	383.96192
30.6000004	273.40821
30.6200008	113.64844
30.6399994	36.11426
30.6599998	15.67187
30.6800003	12.78027
30.7000008	13.23438
30.7199993	15.72656
30.7399998	22.41796
30.7600002	48.58301
30.7800007	163.04882
30.7999992	479.82226
30.8199997	857.80471
30.8400002	800.65237
30.8600006	463.99219
30.8799992	371.25684
30.8999996	466.36035
30.9200001	384.79786
30.9400005	179.20703
30.9599991	58.23632
30.9799995	15.42383
31	7.94531
31.0200005	5.31933
31.0400009	3.81738
31.0599995	-0.37011
31.0799999	-0.37011
31.1000004	-0.3711
31.1200008	-0.37109
31.1399994	-0.37207
31.1599998	-0.37207
31.1800003	-0.37305
31.2000008	0.5205
31.2199993	0.78223
31.2399998	1.1748
31.2600002	1.82227
31.2800007	3.7832
31.2999992	10.35547
31.3199997	36.29395
31.3400002	92.64551
31.3600006	134.16113
31.3799992	100.80468
31.3999996	56.81835
31.4200001	57.34864
31.4400005	69.51464
31.4599991	48.5918
31.4799995	19.7334
31.5	6.05176
31.5200005	4.21875
31.5400009	4.25195
31.5599995	5.16211
31.5799999	7.08301
31.6000004	13.46289
31.6200008	39.06836
31.6399994	131.39551
31.6599998	302.59668
31.6800003	383.85644
31.7000008	258.2373
31.7199993	151.32813
31.7399998	172.59375
31.7600002	197.6416
31.7800007	125.93652
31.7999992	48.20801
31.8199997	15.31543
31.8400002	4.5
31.8600006	2.61132
31.8799992	1.7461
31.8999996	1.21093
31.9200001	-0.39551
31.9400005	-0.39648
31.9599991	-0.39649
31.9799995	-0.39746
32	-0.39746
32.0200005	-0.39843
32.0400009	5.67968
32.0600014	7.50195
32.0800018	10.26855
32.0999985	14.96679
32.1199989	30.16503
32.1399994	85.52442
32.1599998	287.46093
32.1800003	669.78418
32.2000008	863.7676
32.2200012	586.12208
32.2400017	332.37207
32.2599983	371.44824
32.2799988	447.90821
32.2999992	302.77734
32.3199997	120.91699
32.3400002	38.6084
32.3600006	11.50781
32.3800011	6.82031
32.4000015	4.83203
32.4199982	3.78125
32.4399986	8.2168
32.4599991	12.81347
32.4799995	22.44922
32.5	34.40527
32.5200005	41.78223
32.5400009	72.458
32.5600014	219.0752
32.5800018	641.11621
32.5999985	1162.02153
32.6199989	1102.43647
32.6399994	617.37011
32.6599998	439.34668
32.6800003	592.35547
32.7000008	585.00879
32.7200012	315.28418
32.7400017	109.24902
32.7599983	28.09472
32.7799988	12.74707
32.7999992	8.22851
32.8199997	5.8584
32.8400002	4.3418
32.8600006	1.46192
32.8800011	2.03614
32.9000015	2.91699
32.9199982	4.45215
32.9399986	9.66797
32.9599991	29.47949
32.9799995	97.30664
33	213.10547
33.0200005	253.0625
33.0400009	160.14355
33.0600014	91.1709
33.0800018	109.04297
33.0999985	132.84472
33.1199989	89.19141
33.1399994	35.27246
33.1599998	26.28614
33.1800003	22.9209
33.2000008	28.49316
33.2200012	39.77832
33.2400017	77.9043
33.2599983	218.61914
33.2799988	728.34277
33.2999992	1675.04689
33.3199997	2126.12016
33.3400002	1414.19043
33.3600006	769.73438
33.3800011	864.35938
33.4000015	1134.71778
33.4199982	847.99609
33.4399986	367.87207
33.4599991	122.91602
33.4799995	46.33594
33.5	37.0918
33.5200005	26.63477
33.5400009	15.21679
33.5600014	1.49902
33.5800018	0.12402
33.5999985	-0.12012
33.6199989	-0.21679
33.6399994	-0.27539
33.6599998	1.06445
33.6800003	1.52344
33.7000008	2.22657
33.7200012	3.4541
33.7400017	7.59668
33.7599983	23.33984
33.7799988	77.13965
33.7999992	168.8955
33.8199997	200.35742
33.8400002	125.80762
33.8600006	68.72754
33.8800011	81.39746
33.9000015	105.44433
33.9199982	75.74707
33.9399986	33.60449
33.9599991	12.58984
33.9799995	6.32617
34	6.44922
34.0200005	8.5166
34.0400009	28.87305
34.0600014	69.15722
34.0800018	189.03613
34.0999985	357.20215
34.1199989	378.70606
34.1399994	284.95215
34.1599998	417.2295
34.1800003	1051.93554
34.2000008	1833.52249
34.2200012	1698.82717
34.2400017	911.07031
34.2599983	569.91504
34.2799988	778.62011
34.2999992	888.91016
34.3199997	547.37695
34.3400002	206.13184
34.3600006	52.94238
34.3800011	21.41114
34.4000015	13.23437
34.4199982	9.33887
34.4399986	9.21386
34.4599991	2.52734
34.4799995	3.5625
34.5	5.29883
34.5200005	10.66504
34.5400009	29.74707
34.5600014	100.97168
34.5800018	242.27442
34.5999985	324.81543
34.6199989	224.35742
34.6399994	113.1123
34.6599998	112.35937
34.6800003	162.87207
34.7000008	141.08398
34.7200012	75.59863
34.7400017	32.37012
34.7599983	19.46875
34.7799988	21.75097
34.7999992	30.86719
34.8199997	69.95606
34.8400002	224.9873
34.8600006	666.88476
34.8800011	1216.5283
34.9000015	1154.60352
34.9199982	623.2207
34.9399986	387.38379
34.9599991	547.28809
34.9799995	658.88671
35	425.39063
35.0200005	164.5791
35.0400009	42.875
35.0600014	16.56836
35.0800018	9.98438
35.0999985	6.96778
35.1199989	5.10547
35.1399994	-0.4746
35.1599998	-0.47558
35.1800003	-0.47559
35.2000008	-0.07715
35.2200012	0.03418
35.2400017	0.19922
35.2599983	0.46094
35.2799988	0.97949
35.2999992	3.07714
35.3199997	11.31543
35.3400002	33.45801
35.3600006	58.76953
35.3800011	52.97071
35.4000015	27.46679
35.4199982	17.39355
35.4399986	25.62012
35.4599991	30.92578
35.4799995	19.70899
35.5	18.11621
35.5200005	15.74414
35.5400009	19.74219
35.5600014	29.02539
35.5800018	63.73047
35.5999985	200.25293
35.6199989	621.41308
35.6399994	1232.0625
35.6599998	1293.40039
35.6800003	736.09863
35.7000008	398.14941
35.7200012	518.58496
35.7400017	715.12597
35.7599983	541.5127
35.7799988	234.41504
35.7999992	76.24218
35.8199997	24.90723
35.8400002	16.10449
35.8600006	10.83496
35.8800011	6.95996
35.9000015	-0.2168
35.9199982	-0.37988
35.9399986	-0.42285
35.9599991	6.2627
35.9799995	8.20703
36	11.10742
36.0200005	15.92676
36.0400009	27.00781
36.0600014	76.57422
36.0800018	259.67676
36.0999985	659.96387
36.1199989	961.24024
36.1399994	714.57129
36.1599998	343.99414
36.1800003	276.01172
36.2000008	435.66992
36.2200012	470.75782
36.2400017	276.02637
36.2599983	104.1914
36.2799988	34.50293
36.2999992	23.82227
36.3199997	28.75
36.3400002	73.5459
36.3600006	221.93848
36.3800011	535.67481
36.4000015	763.84863
36.4199982	578.88769
36.4399986	367.00781
36.4599991	554.89161
36.4799995	1051.14453
36.5	1161.15332
36.5200005	680.22559
36.5400009	308.70996
36.5600014	294.28711
36.5800018	422.6377
36.5999985	362.85938
36.6199989	174.29883
36.6399994	58.8916
36.6599998	15.24512
36.6800003	7.72558
36.7000008	5.5332
36.7200012	4.17286
36.7400017	0.24023
36.7599983	0.54492
36.7799988	1.22754
36.7999992	4.23438
36.8199997	15.46094
36.8400002	40.71484
36.8600006	61.04492
36.8800011	46.36816
36.9000015	21.83692
36.9199982	15.8584
36.9399986	25.78515
36.9599991	30.57519
36.9799995	20.68847
37	9.16406
37.0200005	4.54687
37.0400009	4.77051
37.0600014	9.79199
37.0800018	27.13965
37.0999985	85.20215
37.1199989	190.3252
37.1399994	238.53125
37.1599998	163.83691
37.1800003	116.40722
37.2000008	203.57129
37.2200012	351.74903
37.2400017	334.33008
37.2599983	175.74512
37.2799988	84.64258
37.2999992	96.83984
37.3199997	132.13184
37.3400002	101.25782
37.3600006	44.55762
37.3800011	12.5957
37.4000015	3.67676
37.4199982	7.08692
37.4399986	7.80957
37.4599991	9.49511
37.4799995	11.57325
37.5	17.71777
37.5200005	40.37598
37.5400009	129.56836
37.5600014	393.60058
37.5800018	752.708
37.5999985	755.94922
37.6199989	411.67969
37.6399994	205.63672
37.6599998	266.23632
37.6800003	409.90722
37.7000008	360.69726
37.7200012	176.97559
37.7400017	65.85547
37.7599983	29.91211
37.7799988	32.57422
37.7999992	75.68164
37.8199997	240.06055
37.8400002	584.72558
37.8600006	824.70312
37.8800011	592.67676
37.9000015	272.16211
37.9199982	203.78027
37.9399986	340.93359
37.9599991	417.19629
37.9799995	268.7041
38	103.81836
38.0200005	27.38965
38.0400009	10.60254
38.0600014	6.33398
38.0800018	4.36328
38.0999985	3.14355
38.1199989	-0.51368
38.1399994	0.51269
38.1599998	0.80175
38.1800003	1.22852
38.2000008	1.90528
38.2200012	3.26074
38.2400017	8.66894
38.2599983	29.79199
38.2799988	85.48145
38.2999992	147.47852
38.3199997	130.73926
38.3400002	65.26953
38.3600006	34.75195
38.3800011	51.03027
38.4000015	76.91407
38.4199982	68.63965
38.4399986	35.98437
38.4599991	17.76855
38.4799995	17.00293
38.5	35.21875
38.5200005	103.53711
38.5400009	310.35058
38.5600014	622.53515
38.5800018	680.47852
38.5999985	434.99121
38.6199989	365.68359
38.6399994	674.51368
38.6599998	1012.62989
38.6800003	830.15137
38.7000008	406.37012
38.7200012	219.51075
38.7400017	282.20508
38.7599983	359.26758
38.7799988	250.46973
38.7999992	103.85156
38.8199997	29.72071
38.8400002	9.69727
38.8600006	9.00293
38.8800011	8.29395
38.9000015	8.87793
38.9199982	8.72559
38.9399986	18.02832
38.9599991	60.98828
38.9799995	189.86426
39	379.76074
39.0200005	403.44043
39.0400009	227.12988
39.0600014	102.3086
39.0800018	114.23633
39.0999985	196.55078
39.1199989	207.76074
39.1399994	117.09277
39.1599998	44.65527
39.1800003	17.40333
39.2000008	19.23828
39.2200012	47.79492
39.2400017	141.28613
39.2599983	291.3252
39.2799988	328.13281
39.2999992	205.24804
39.3199997	134.16601
39.3400002	209.4375
39.3600006	326.41114
39.3800011	295.66699
39.4000015	156.61719
39.4199982	74.39356
39.4399986	74.95996
39.4599991	95.57031
39.4799995	70.23828
39.5	30.44922
39.5200005	8.98388
39.5400009	2.35791
39.5600014	1.13867
39.5800018	0.64111
39.5999985	0.34326
39.6199989	-0.51758
39.6399994	-0.51758
39.6599998	-0.51757
39.6800003	-0.51758
39.7000008	-0.51758
39.7200012	-0.51758
39.7400017	-0.51758
39.7599983	-0.51757
39.7799988	-0.51807
39.7999992	5.25733
39.8199997	6.9038
39.8400002	9.35498
39.8600006	13.28809
39.8800011	21.60596
39.9000015	55.76416
39.9199982	186.43506
39.9399986	505.5083
39.9599991	814.05127
39.9799995	670.30615
40	318.52343
40.0200005	169.49414
40.0400009	259.61767
40.0600014	413.97705
40.0800018	366.49414
40.0999985	178.77686
40.1199989	54.43408
40.1399994	20.00635
40.1599998	12.15185
40.1800003	7.65576
40.2000008	4.62549
40.2200012	-0.29151
40.2400017	4.65381
40.2599983	6.20703
40.2799988	8.65527
40.2999992	13.16992
40.3199997	27.23193
40.3400002	91.65577
40.3600006	281.13477
40.3800011	551.58886
40.4000015	573.02441
40.4199982	316.15772
40.4399986	135.93262
40.4599991	143.9375
40.4799995	268.82959
40.5	312.86377
40.5200005	195.67139
40.5400009	82.96045
40.5600014	39.92823
40.5800018	60.73047
40.5999985	180.24072
40.6199989	488.47168
40.6399994	808.88134
40.6599998	687.69873
40.6800003	331.17139
40.7000008	159.23584
40.7200012	226.45801
40.7400017	389.85205
40.7599983	384.28955
40.7799988	203.10742
40.7999992	63.45313
40.8199997	19.03223
40.8400002	8.8833
40.8600006	5.71972
40.8800011	4.02344
40.9000015	3.17334
40.9199982	-0.20605
40.9399986	-0.10596
40.9599991	0.05175
40.9799995	0.36816
41	1.50635
41.0200005	6.46094
41.0400009	19.08007
41.0600014	32.94434
41.0800018	28.9331
41.0999985	13.93457
41.1199989	6.0996
41.1399994	8.28808
41.1599998	15.63037
41.1800003	16.6543
41.2000008	9.52051
41.2200012	3.54493
41.2400017	4.1211
41.2599983	7.72021
41.2799988	20.44483
41.2999992	44.17334
41.3199997	58.40088
41.3400002	54.91748
41.3600006	87.24755
41.3800011	192.11719
41.4000015	277.84815
41.4199982	214.78516
41.4399986	103.13184
41.4599991	55.25927
41.4799995	80.16748
41.5	128.21582
41.5200005	114.93945
41.5400009	56.43652
41.5600014	16.78174
41.5800018	5.24561
41.5999985	2.69971
41.6199989	1.9497
41.6399994	1.71533
41.6599998	1.13477
41.6800003	4.8042
41.7000008	15.97363
41.7200012	32.98291
41.7400017	35.97851
41.7599983	20.34961
41.7799988	8.03613
41.7999992	6.96143
41.8199997	15.87011
41.8400002	21.6919
41.8600006	17.00879
41.8800011	10.36865
41.9000015	9.72851
41.9199982	24.10693
41.9399986	79.16113
41.9599991	194.46826
41.9799995	273.52393
42	195.78174
42.0200005	85.57177
42.0400009	49.06788
42.0600014	82.21094
42.0800018	134.92041
42.0999985	124.64893
42.1199989	63.11182
42.1399994	20.06591
42.1599998	7.77149
42.1800003	4.78027
42.2000008	2.75977
42.2200012	1.93359
42.2400017	0.32422
42.2599983	0.48144
42.2799988	0.80811
42.2999992	1.4419
42.3199997	3.49219
42.3400002	12.71387
42.3600006	39.03028
42.3800011	74.68457
42.4000015	74.88623
42.4199982	39.90087
42.4399986	15.91748
42.4599991	15.3789
42.4799995	34.18554
42.5	46.02539
42.5200005	35.25831
42.5400009	20.92187
42.5600014	25.79151
42.5800018	62.24756
42.5999985	182.41601
42.6199989	383.98095
42.6399994	458.51074
42.6599998	339.86426
42.6800003	356.23486
42.7000008	629.28907
42.7200012	819.5791
42.7400017	647.06885
42.7599983	357.41894
42.7799988	198.03516
42.7999992	234.8667
42.8199997	347.46436
42.8400002	300.2583
42.8600006	145.25391
42.8800011	48.77442
42.9000015	19.05419
42.9199982	14.39599
42.9399986	15.29004
42.9599991	21.63037
42.9799995	49.55908
43	170.36084
43.0200005	413.13623
43.0400009	570.94727
43.0600014	401.70557
43.0800018	170.85352
43.0999985	88.53614
43.1199989	148.13623
43.1399994	265.33301
43.1599998	270.99902
43.1800003	148.92773
43.2000008	51.49267
43.2200012	26.02881
43.2400017	47.72217
43.2599983	107.69287
43.2799988	153.19336
43.2999992	113.12012
43.3199997	48.04737
43.3400002	22.76269
43.3600006	35.23975
43.3800011	66.27442
43.4000015	72.76172
43.4199982	41.90235
43.4399986	13.81982
43.4599991	3.80908
43.4799995	1.43799
43.5	0.76074
43.5200005	1.73242
43.5400009	1.89844
43.5600014	1.80176
43.5800018	2.74463
43.5999985	4.88281
43.6199989	13.43115
43.6399994	47.19532
43.6599998	119.24023
43.6800003	173.96142
43.7000008	129.00977
43.7200012	56.11963
43.7400017	25.82959
43.7599983	41.39551
43.7799988	78.11865
43.7999992	90.16846
43.8199997	57.64014
43.8400002	29.50538
43.8600006	35.37744
43.8800011	102.42823
43.9000015	243.8374
43.9199982	340.63623
43.9399986	252.86279
43.9599991	149.76807
43.9799995	165.30664
44	236.0918
44.0200005	256.98242
44.0400009	210.42871
44.0600014	119.42481
44.0800018	69.99024
44.0999985	79.87012
44.1199989	81.76367
44.1399994	47.70264
44.1599998	18.13331
44.1800003	7.20459
44.2000008	3.65674
44.2200012	3.8584
44.2400017	6
44.2599983	17.01807
44.2799988	52.88428
44.2999992	116.08398
44.3199997	139.81152
44.3400002	86.58887
44.3600006	34.23584
44.3800011	19.80176
44.4000015	38.40235
44.4199982	68.29688
44.4399986	69.41504
44.4599991	42.36084
44.4799995	23.15332
44.5	36.33789
44.5200005	95.40235
44.5400009	183.29736
44.5600014	200.34033
44.5800018	157.92578
44.5999985	205.75244
44.6199989	342.95947
44.6399994	369.6831
44.6599998	261.05175
44.6800003	149.10058
44.7000008	93.39843
44.7200012	118.04346
44.7400017	173.27734
44.7599983	147.36719
44.7799988	71.73291
44.7999992	23.06347
44.8199997	8.64502
44.8400002	6.30664
44.8600006	7.09619
44.8800011	13.98584
44.9000015	42.55176
44.9199982	110.36963
44.9399986	167.74853
44.9599991	129.92334
44.9799995	57.83544
45	23.88819
45.0200005	31.31446
45.0400009	64.54492
45.0600014	86.68848
45.0800018	61.34668
45.0999985	28.0166
45.1199989	18.66699
45.1399994	37.70948
45.1599998	77.24317
45.1800003	96.97168
45.2000008	82.30615
45.2200012	106.95362
45.2400017	188.69629
45.2599983	220.09863
45.2799988	156.11279
45.2999992	88.43457
45.3199997	52.42188
45.3400002	60.34961
45.3600006	97.46728
45.3800011	99.10742
45.4000015	54.50293
45.4199982	17.93702
45.4399986	5.52442
45.4599991	2.25732
45.4799995	1.44922
45.5	1.25683
45.5200005	2.04932
45.5400009	3.56836
45.5600014	5.68359
45.5800018	4.36181
45.5999985	1.73486
45.6199989	0.45703
45.6399994	2.71631
45.6599998	4.5083
45.6800003	6.43115
45.7000008	7.38721
45.7200012	10.95263
45.7400017	31.45996
45.7599983	100.5625
45.7799988	210.29151
45.7999992	239.03515
45.8199997	141.21192
45.8400002	54.3164
45.8600006	30.7959
45.8800011	57.28857
45.9000015	109.29053
45.9199982	119.9497
45.9399986	69.29932
45.9599991	23.33105
45.9799995	6.79493
46	2.83545
46.0200005	2.10644
46.0400009	1.65234
46.0600014	1.4751
46.0800018	0.66455
46.0999985	1.50439
46.1199989	5.03955
46.1399994	17.48487
46.1599998	39.71045
46.1800003	49.83447
46.2000008	31.92578
46.2200012	12.54394
46.2400017	6.75879
46.2599983	10.84717
46.2799988	21.65332
46.2999992	27.36915
46.3199997	20.66503
46.3400002	15.17237
46.3600006	30.83691
46.3800011	77.93847
46.4000015	127.57177
46.4199982	114.3247
46.4399986	81.98535
46.4599991	99.52344
46.4799995	135.12891
46.5	125.11817
46.5200005	99.78028
46.5400009	69.38916
46.5600014	43.6626
46.5800018	48.10986
46.5999985	61.8457
46.6199989	48.12988
46.6399994	21.43457
46.6599998	8.21386
46.6800003	4.5
46.7000008	5.23779
46.7200012	10.99756
46.7400017	35.90088
46.7599983	94.24512
46.7799988	150.40576
46.7999992	123.03808
46.8199997	56.70263
46.8400002	21.7334
46.8600006	21.31836
46.8800011	46.28271
46.9000015	75.81348
46.9199982	67.52198
46.9399986	34.01855
46.9599991	19.9668
46.9799995	33.65723
47	59.73828
47.0200005	62.02344
47.0400009	43.82666
47.0600014	44.64453
47.0800018	62.6084
47.0999985	61.89063
47.1199989	50.06543
47.1399994	38.56446
47.1599998	24.68017
47.1800003	21.45215
47.2000008	28.80909
47.2200012	26.53369
47.2400017	13.22412
47.2599983	4.45996
47.2799988	1.54785
47.2999992	0.71875
47.3199997	0.98584
47.3400002	2.91064
47.3600006	7.62207
47.3800011	12.93604
47.4000015	11.10791
47.4199982	5.15429
47.4399986	9.14551
47.4599991	10.84473
47.4799995	15.77685
47.5	23.27002
47.5200005	31.92481
47.5400009	56.77294
47.5600014	172.78516
47.5800018	514.45654
47.5999985	963.67188
47.6199989	955.51611
47.6399994	507.34814
47.6599998	186.99218
47.6800003	116.02393
47.7000008	228.01953
47.7200012	448.82813
47.7400017	515.50927
47.7599983	310.8042
47.7799988	109.34912
47.7999992	32.91259
47.8199997	15.24609
47.8400002	10.30127
47.8600006	8.18164
47.8800011	7.32812
47.9000015	4.07764
47.9199982	10.85791
47.9399986	37.22656
47.9599991	93.58789
47.9799995	137.37402
48	102.95459
48.0200005	44.75049
48.0400009	19.62793
48.0600014	21.17286
48.0800018	44.36084
48.0999985	73.28906
48.1199989	70.83593
48.1399994	54.31592
48.1599998	95.36719
48.1800003	227.80859
48.2000008	352.10644
48.2200012	281.56885
48.2400017	128.3916
48.2599983	47.00634
48.2799988	41.93994
48.2999992	92.5083
48.3199997	165.69092
48.3400002	163.57666
48.3600006	83.95166
48.3800011	28.01025
48.4000015	8.65869
48.4199982	4.125
48.4399986	2.67822
48.4599991	1.91455
48.4799995	1.45118
48.5	-0.03027
48.5200005	0.47022
48.5400009	2.00049
48.5600014	4.20752
48.5800018	4.48242
48.5999985	2.39697
48.6199989	0.72851
48.6399994	3.3291
48.6599998	4.66846
48.6800003	7.16845
48.7000008	14.75293
48.7200012	23.26074
48.7400017	58.16113
48.7599983	164.91699
48.7799988	320.94629
48.7999992	360.43848
48.8199997	303.91113
48.8400002	401.82373
48.8600006	578.05176
48.8800011	515.04052
48.9000015	341.90332
48.9199982	251.49462
48.9399986	182.7832
48.9599991	175.66358
48.9799995	258.82568
49	276.91602
49.0200005	158.13671
49.0400009	59.72217
49.0600014	22.71826
49.0800018	15.26123
49.0999985	27.20948
49.1199989	76.72999
49.1399994	166.52929
49.1599998	205.59913
49.1800003	132.71729
49.2000008	52.6997
49.2200012	24.8291
49.2400017	31.8794
49.2599983	68.76806
49.2799988	111.08105
49.2999992	104.81152
49.3199997	88.54004
49.3400002	163.66114
49.3600006	324.42822
49.3800011	379.18848
49.4000015	237.99316
49.4199982	112.74121
49.4399986	79.28321
49.4599991	91.16552
49.4799995	140.59717
49.5	197.73096
49.5200005	162.42432
49.5400009	79.10938
49.5600014	39.38672
49.5800018	29.24707
49.5999985	17.9375
49.6199989	8.10547
49.6399994	3.58349
49.6599998	0.47168
49.6800003	0.21631
49.7000008	0.09912
49.7200012	0.02783
49.7400017	-0.18897
49.7599983	-0.1875
49.7799988	-0.18652
49.7999992	0.29345
49.8199997	0.44336
49.8400002	0.67285
49.8600006	1.08399
49.8800011	2.27295
49.9000015	7.27344
49.9199982	22.87012
49.9399986	46.28809
49.9599991	50.68408
49.9799995	29.11768
50	10.89551

# vim:ts=8:sw=8
